# XDI/1.0
# Column.1: energy(ev)
# Column.2: transmission(au)
# Element.symbol: Br
# Element.edge: K
# Mono.name: Si 2 2 0
# Mono.d_spacing: 1.92
# Beamline.name: FAME
# Sample.name: Gallium bromide solution in hydrothermal conditions: Ga3+ 0.17m, Br- 0.51m
# Sample.temperature: 470.0 +/- 0.1 K
# Sample.pressure: 300.0 +/- 0.5 bar
# Citation.doi:  https://doi.org/10.26302/SSHADE/EXPERIMENT_DT_20180710_001
# Citation.comments: Da Silva, CÃ©cile; Testemale, Denis; Hazemann, Jean-Louis; Proux, Olivier (2006): Br K edge XAS of gallium bromide solution in hydrothermal conditions at 300bars and between 300 and 650K. SSHADE/FAME (OSUG Data Center). Dataset/Spectral Data. https://doi.org/10.26302/SSHADE/EXPERIMENT_DT_20180710_001Schmitt, Bernard; Bollard, Philippe; Albert, Damien; Garenne, Alexandre; Bonal, Lydie; and the SSHADE partner's consortium (2018). SSHADE: 'Solid Spectroscopy Hosting Architecture of Databases and Expertise'. OSUG Data Center. Service/Database infrastructure. https://doi.org/10.26302/SSHADE
# ////
#---------
# energy(ev)	transmission(au)
13304.300301	-0.53277
13309.600301	-0.53560
13314.700301	-0.53772
13319.800301	-0.53985
13324.900301	-0.54212
13330.000302	-0.54410
13335.000302	-0.54629
13340.000302	-0.54861
13345.000302	-0.55105
13349.900302	-0.55298
13355.000302	-0.55451
13359.900302	-0.55679
13365.000302	-0.55861
13370.000302	-0.56096
13375.000303	-0.56226
13379.900303	-0.56366
13384.900303	-0.56579
13390.000303	-0.56740
13394.900303	-0.56885
13400.000303	-0.57021
13405.000303	-0.57187
13410.100303	-0.57331
13414.900303	-0.57488
13420.000304	-0.57587
13424.900304	-0.57665
13430.000304	-0.57724
13434.900304	-0.57744
13435.400304	-0.57812
13435.900304	-0.57852
13436.400304	-0.57848
13436.900304	-0.57854
13437.400304	-0.57869
13437.900304	-0.57893
13438.400304	-0.57896
13438.900304	-0.57923
13439.400304	-0.57923
13439.900304	-0.57958
13440.400304	-0.57973
13440.900304	-0.58008
13441.400304	-0.58024
13441.900304	-0.58015
13442.400304	-0.58018
13442.900304	-0.58019
13443.500304	-0.58022
13444.000304	-0.58026
13444.500304	-0.58015
13444.900304	-0.58039
13445.400304	-0.58026
13445.900304	-0.58010
13446.400304	-0.58061
13446.900304	-0.58009
13447.400304	-0.58024
13447.900304	-0.57996
13448.400304	-0.57998
13448.900304	-0.58003
13449.400304	-0.57943
13449.900304	-0.57932
13450.400304	-0.57894
13450.900304	-0.57839
13451.400304	-0.57806
13451.900304	-0.57783
13452.400304	-0.57741
13452.900304	-0.57685
13453.400304	-0.57630
13453.900304	-0.57562
13454.400304	-0.57532
13454.900304	-0.57436
13455.400304	-0.57364
13455.900304	-0.57301
13456.400304	-0.57209
13456.900304	-0.57094
13457.400304	-0.56982
13457.900304	-0.56868
13458.400304	-0.56742
13458.900304	-0.56579
13459.400304	-0.56466
13459.900304	-0.56276
13460.400304	-0.56085
13460.900305	-0.55881
13461.400305	-0.55604
13461.900305	-0.55358
13462.400305	-0.55065
13462.900305	-0.54732
13463.500305	-0.54352
13463.900305	-0.54022
13464.400305	-0.53572
13464.900305	-0.53056
13465.400305	-0.52509
13465.900305	-0.51856
13466.400305	-0.51096
13466.900305	-0.50204
13467.400305	-0.49178
13467.900305	-0.47914
13468.400305	-0.46444
13468.900305	-0.44680
13469.400305	-0.42433
13469.900305	-0.39447
13470.400305	-0.35634
13470.900305	-0.30416
13471.400305	-0.23469
13471.900305	-0.13791
13472.400305	-0.01510
13472.900305	0.14650
13473.400305	0.34307
13473.900305	0.57705
13474.400305	0.82917
13474.900305	1.05861
13475.400305	1.26848
13475.900305	1.40738
13476.400305	1.49083
13476.900305	1.55519
13477.400305	1.58910
13477.900305	1.60475
13478.400305	1.60411
13478.900305	1.58603
13479.400305	1.54995
13479.900305	1.49835
13480.400305	1.43055
13480.900305	1.35322
13481.400305	1.27462
13481.900305	1.19472
13482.500305	1.12141
13482.900305	1.06401
13483.400305	1.01136
13483.900305	0.97185
13484.400305	0.94162
13484.900305	0.92292
13485.400305	0.91502
13485.900305	0.91626
13486.400305	0.92479
13486.900305	0.93809
13487.400305	0.95832
13487.900305	0.98051
13488.400305	1.00437
13488.900305	1.02885
13489.400305	1.05352
13489.900305	1.07806
13490.400305	1.10292
13490.900305	1.12736
13491.400305	1.15109
13491.900305	1.17050
13492.800305	1.20301
13494.600305	1.24616
13495.400305	1.25730
13496.200305	1.26341
13497.200305	1.26649
13498.100305	1.26441
13499.100305	1.25829
13500.000305	1.24854
13501.100305	1.23508
13502.100305	1.22045
13503.200305	1.20327
13504.200305	1.18543
13505.300306	1.16591
13506.400306	1.14796
13507.500306	1.13075
13508.600306	1.11502
13509.800306	1.10220
13511.000306	1.09106
13512.200306	1.08316
13513.400306	1.07745
13514.600306	1.07447
13515.800306	1.07402
13517.100306	1.07498
13518.400306	1.07822
13519.600306	1.08176
13521.000306	1.08584
13522.400306	1.09016
13523.800306	1.09436
13525.100306	1.09741
13526.500306	1.09973
13528.000306	1.10156
13529.300306	1.10163
13530.900306	1.10044
13532.300306	1.09746
13533.800306	1.09292
13535.300306	1.08830
13536.800306	1.08239
13538.400306	1.07595
13539.900306	1.06932
13541.500306	1.06212
13543.200306	1.05555
13544.800306	1.04933
13546.500306	1.04310
13548.100306	1.03821
13549.900307	1.03419
13551.500307	1.03136
13553.200307	1.02886
13555.000307	1.02757
13556.600307	1.02641
13558.400307	1.02583
13560.400307	1.02532
13562.100307	1.02514
13564.000307	1.02570
13565.800307	1.02621
13567.600307	1.02764
13569.600307	1.02849
13571.500307	1.02795
13573.400307	1.02666
13575.400307	1.02566
13577.300307	1.02474
13579.400307	1.02338
13581.300307	1.02173
13583.300307	1.02008
13585.300307	1.01745
13587.300307	1.01505
13589.500307	1.01215
13591.600307	1.00957
13593.700308	1.00741
13595.900308	1.00612
13598.000308	1.00478
13600.200308	1.00281
13602.400308	1.00139
13604.600308	1.00007
13606.800308	0.99856
13609.100308	0.99746
13611.400308	0.99595
13613.600308	0.99479
13615.900308	0.99316
13618.300308	0.99126
13620.600308	0.98988
13623.000308	0.98843
13625.300308	0.98623
13627.700308	0.98394
13630.100308	0.98190
13632.600308	0.97958
13635.000308	0.97700
13637.600309	0.97417
13640.100309	0.97160
13642.500309	0.96920
13645.100309	0.96673
13647.600309	0.96435
13650.200309	0.96190
13652.800309	0.95952
13655.300309	0.95747
13658.100309	0.95510
13660.700309	0.95319
13663.300309	0.95102
13666.000309	0.94872
13668.800309	0.94658
13671.400309	0.94418
13674.200309	0.94200
13677.000309	0.94012
13679.700309	0.93800
13682.500310	0.93609
13685.300310	0.93426
13688.100310	0.93328
13691.000310	0.93145
13693.800310	0.92927
13696.800310	0.92732
13699.700310	0.92514
13702.500310	0.92312
13705.500310	0.92116
13708.500310	0.91883
13711.600310	0.91694
13714.500310	0.91469
13717.500310	0.91243
13720.600310	0.91018
13723.600310	0.90778
13726.800311	0.90528
13729.800311	0.90332
13732.900311	0.90100
13736.000311	0.89858
13739.200311	0.89644
13742.300311	0.89455
13745.600311	0.89190
13748.800311	0.88945
13752.000311	0.88680
13755.200311	0.88449
13758.500311	0.88235
13761.900311	0.88005
13765.100311	0.87736
13768.500311	0.87467
13771.800312	0.87212
13775.200312	0.86957
13778.500312	0.86731
13781.900312	0.86452
13785.400312	0.86208
13788.800312	0.85985
13792.200312	0.85739
13795.700312	0.85508
13799.200312	0.85258
13802.700312	0.85013
13806.200312	0.84711
13809.700312	0.84453
13813.300312	0.84179
13817.000313	0.83914
13820.500313	0.83649
13824.200313	0.83422
13827.900313	0.83121
13831.500313	0.82847
13835.200313	0.82586
13838.900313	0.82325
13842.600313	0.82080
13846.400313	0.81806
13850.100313	0.81533
13853.700313	0.81272
13857.700313	0.80970
13861.500314	0.80720
13865.200314	0.80420
13869.200314	0.80106
13873.000314	0.79812
13876.900314	0.79541
13880.900314	0.79243
13884.800314	0.78954
13888.800314	0.78680
13892.700314	0.78356
13896.700314	0.78044
13900.700314	0.77793
13904.600315	0.77487
13908.800315	0.77164
13912.800315	0.76844
13916.900315	0.76576
13921.000315	0.76297
13925.000315	0.75970
13929.200315	0.75671
13933.300315	0.75379
13937.500315	0.75068
13941.800315	0.74732
13945.900315	0.74459
13950.300316	0.74147
13954.500316	0.73848
13958.700316	0.73534
13962.900316	0.73246
13967.300316	0.72915
13971.700316	0.72589
13975.900316	0.72275
13980.300316	0.71999
13984.700316	0.71690
13989.000316	0.71351
13993.500317	0.71059
13998.000317	0.70736
14002.400317	0.70438
14006.900317	0.70158
14011.500317	0.69833
14016.000317	0.69496
14020.400317	0.69219
14024.900317	0.68932
14029.500317	0.68604
14034.100317	0.68292
14038.700318	0.67963
14043.400318	0.67646
14047.900318	0.67306
14052.700318	0.67010
14057.400318	0.66702
14062.100318	0.66425
14066.800318	0.66073
14071.600318	0.65745
14076.300318	0.65417
14081.000319	0.65115
14085.800319	0.64805
14090.600319	0.64481
14095.500319	0.64151
14100.200319	0.63848
14105.300319	0.63511
14110.100319	0.63135
14115.000319	0.62836
14120.000319	0.62507
14124.900320	0.62206
14129.900320	0.61886
14134.800320	0.61552
14139.800320	0.61262
14144.900320	0.60934
14149.900320	0.60619
14155.000320	0.60303
14160.000320	0.59969
14165.000320	0.59662
14170.300321	0.59335
14175.300321	0.58998
14180.600321	0.58681
14185.800321	0.58359
14191.000321	0.57991
14196.000321	0.57679
14201.300321	0.57352
14206.500321	0.57025
14211.900321	0.56682
14217.100322	0.56356
14222.500322	0.56027
14227.700322	0.55726
14233.100322	0.55386
14238.400322	0.55096
14243.900322	0.54727
14249.300322	0.54357
14254.700322	0.54032
14260.100323	0.53715
14265.600323	0.53395
14270.900323	0.53063
14276.500323	0.52732
14282.000323	0.52410
14287.600323	0.52062
14293.100323	0.51741
14298.800323	0.51405
14304.400324	0.51077
14309.900324	0.50737
14315.500324	0.50357
14321.200324	0.50083
14326.800324	0.49733
14332.400324	0.49396
14338.200324	0.49080
14344.000324	0.48729
14349.600325	0.48376
14355.400325	0.48056
14361.300325	0.47807
14367.100325	0.47360
14372.900325	0.47061
14378.600325	0.46741
14384.600325	0.46405
14390.300326	0.46100
14396.300326	0.45746
14402.200326	0.45447
14408.200326	0.45125
14414.000326	0.44789
14419.900326	0.44473
14426.000326	0.44158
14432.000326	0.43853
14438.100327	0.43527
14444.000327	0.43198
