# XDI/1.0
# Column.1: energy(ev)
# Column.2: fluorescence_emission(au)
# Element.symbol: Cu
# Element.edge: K
# Mono.name: Si 2 2 0
# Mono.d_spacing: 1.92
# Beamline.name: FAME
# Sample.name: Pellet of CuSO4.n(H2O) mixed with BN
# Sample.temperature: 293.0 +/- 2.0 K
# Sample.pressure: None
# Citation.doi:  https://doi.org/10.26302/SSHADE/EXPERIMENT_OP_20180717_002
# Citation.comments: Proux, Olivier; Testemale, Denis; Hazemann, Jean-Louis (2009): Cu K edge XAS HERFD (Kalpha1) of CuSO4.n(H2O) at ambient conditions. SSHADE/FAME (OSUG Data Center). Dataset/Spectral Data. https://doi.org/10.26302/SSHADE/EXPERIMENT_OP_20180717_002Schmitt, Bernard; Bollard, Philippe; Albert, Damien; Garenne, Alexandre; Bonal, Lydie; and the SSHADE partner's consortium (2018). SSHADE: 'Solid Spectroscopy Hosting Architecture of Databases and Expertise'. OSUG Data Center. Service/Database infrastructure. https://doi.org/10.26302/SSHADE
# ////
#---------
# energy(ev)	fluorescence_emission(au)
8851.420200	0.00010
8853.800200	0.00010
8855.900200	0.00010
8857.860200	0.00010
8859.930200	0.00010
8861.930200	0.00010
8863.970201	0.00010
8865.960201	0.00010
8868.050201	0.00010
8869.990201	0.00010
8872.010201	0.00010
8873.970201	0.00010
8876.040201	0.00010
8877.950201	0.00010
8879.980201	0.00010
8881.990201	0.00010
8884.050201	0.00010
8885.990201	0.00010
8888.030201	0.00010
8890.000201	0.00010
8892.000201	0.00010
8893.970201	0.00010
8896.040201	0.00010
8898.010201	0.00010
8900.030201	0.00010
8901.970201	0.00010
8904.040201	0.00010
8906.020201	0.00010
8908.060202	0.00010
8910.010202	0.00010
8912.060202	0.00010
8914.010202	0.00010
8916.020202	0.00010
8917.980202	0.00010
8920.040202	0.00010
8921.990202	0.00010
8924.010202	0.00010
8925.990202	0.00010
8928.050202	0.00010
8930.010202	0.00010
8932.030202	0.00010
8933.990202	0.00010
8936.040202	0.00010
8937.990202	0.00010
8940.020202	0.00010
8941.990202	0.00010
8944.020202	0.00010
8945.950202	0.00010
8948.030202	0.00010
8949.980202	0.00010
8952.040203	0.00010
8954.010203	0.00010
8956.070203	0.00010
8957.980203	0.00010
8960.030203	0.00010
8961.970203	0.00010
8964.060203	0.00010
8966.000203	0.00010
8968.010203	0.00010
8969.960203	0.00010
8970.160203	0.00010
8970.380203	0.00010
8970.580203	0.00010
8970.790203	0.00010
8970.990203	0.00010
8971.200203	0.00010
8971.390203	0.00010
8971.590203	0.00010
8971.780203	0.00010
8972.000203	0.00010
8972.200203	0.00010
8972.410203	0.00010
8972.600203	0.00010
8972.800203	0.00010
8973.000203	0.00010
8973.190203	0.00010
8973.390203	0.00010
8973.590203	0.00010
8973.780203	0.00010
8973.990203	0.00010
8974.190203	0.00010
8974.390203	0.00010
8974.590203	0.00010
8974.780203	0.00010
8975.000203	0.00010
8975.200203	0.00011
8975.400203	0.00011
8975.580203	0.00011
8975.790203	0.00011
8976.000203	0.00011
8976.190203	0.00012
8976.400203	0.00013
8976.600203	0.00013
8976.780203	0.00015
8976.990203	0.00016
8977.200203	0.00017
8977.390203	0.00018
8977.590203	0.00019
8977.790203	0.00019
8977.990203	0.00018
8978.200203	0.00017
8978.400203	0.00016
8978.600203	0.00015
8978.810203	0.00014
8979.010203	0.00014
8979.200203	0.00014
8979.400203	0.00014
8979.610203	0.00015
8979.790203	0.00015
8980.000203	0.00016
8980.200203	0.00016
8980.400203	0.00017
8980.600203	0.00018
8980.790203	0.00018
8980.990203	0.00019
8981.200203	0.00020
8981.390203	0.00021
8981.580203	0.00022
8981.790203	0.00023
8981.990203	0.00024
8982.190203	0.00025
8982.390203	0.00026
8982.590203	0.00027
8982.790203	0.00028
8982.990203	0.00029
8983.180203	0.00031
8983.400203	0.00032
8983.590203	0.00035
8983.790203	0.00037
8984.000203	0.00041
8984.190203	0.00045
8984.390203	0.00049
8984.600203	0.00056
8984.800203	0.00063
8984.990203	0.00071
8985.190203	0.00080
8985.400203	0.00092
8985.580203	0.00103
8985.780203	0.00117
8985.990203	0.00132
8986.190203	0.00149
8986.390203	0.00166
8986.600203	0.00184
8986.800203	0.00201
8987.010203	0.00219
8987.190203	0.00234
8987.400203	0.00252
8987.600203	0.00269
8987.790203	0.00284
8988.000203	0.00299
8988.180203	0.00311
8988.400203	0.00324
8988.590203	0.00335
8988.800203	0.00346
8988.990203	0.00355
8989.200203	0.00364
8989.390203	0.00372
8989.600203	0.00380
8989.790203	0.00388
8989.980203	0.00396
8990.180203	0.00406
8990.390203	0.00416
8990.600203	0.00428
8990.800203	0.00439
8991.000203	0.00451
8991.190203	0.00465
8991.390203	0.00478
8991.590203	0.00494
8991.790203	0.00510
8992.000203	0.00528
8992.190203	0.00545
8992.400203	0.00563
8992.600203	0.00581
8992.790203	0.00598
8992.990203	0.00616
8993.200203	0.00633
8993.410203	0.00650
8993.600203	0.00665
8993.800203	0.00678
8994.000203	0.00690
8994.200203	0.00701
8994.400203	0.00710
8994.600203	0.00718
8994.780203	0.00725
8994.990203	0.00731
8995.200203	0.00734
8995.400203	0.00738
8995.590203	0.00740
8995.790203	0.00743
8995.990204	0.00744
8996.200204	0.00744
8996.400204	0.00743
8996.600204	0.00742
8996.790204	0.00740
8996.990204	0.00739
8997.190204	0.00734
8997.400204	0.00731
8997.600204	0.00726
8997.790204	0.00722
8997.990204	0.00715
8998.180204	0.00711
8998.390204	0.00704
8998.590204	0.00699
8998.790204	0.00692
8999.000204	0.00686
8999.200204	0.00681
8999.400204	0.00674
8999.590204	0.00669
8999.800204	0.00662
9000.000204	0.00656
9000.190204	0.00651
9000.400204	0.00646
9000.590204	0.00639
9000.780204	0.00634
9001.000204	0.00628
9001.200204	0.00622
9001.380204	0.00617
9001.600204	0.00611
9001.790204	0.00606
9001.980204	0.00600
9002.200204	0.00593
9002.400204	0.00587
9002.580204	0.00582
9002.790204	0.00576
9003.000204	0.00570
9003.210204	0.00564
9003.410204	0.00558
9003.590204	0.00552
9003.800204	0.00547
9004.000204	0.00543
9004.190204	0.00537
9004.400204	0.00532
9004.600204	0.00528
9004.790204	0.00522
9004.990204	0.00518
9005.200204	0.00514
9005.390204	0.00510
9005.600204	0.00507
9005.780204	0.00504
9005.990204	0.00502
9006.190204	0.00499
9006.380204	0.00497
9006.590204	0.00495
9006.790204	0.00494
9007.000204	0.00493
9007.200204	0.00493
9007.400204	0.00491
9007.600204	0.00490
9007.800204	0.00490
9007.990204	0.00490
9008.200204	0.00490
9008.400204	0.00488
9008.600204	0.00488
9008.810204	0.00487
9008.990204	0.00487
9009.200204	0.00487
9009.390204	0.00486
9009.590204	0.00487
9009.790204	0.00485
9009.990204	0.00485
9010.180204	0.00484
9010.390204	0.00483
9010.590204	0.00482
9010.800204	0.00482
9010.990204	0.00481
9011.190204	0.00480
9011.400204	0.00479
9011.590204	0.00479
9011.790204	0.00477
9012.000204	0.00476
9012.190204	0.00475
9012.380204	0.00475
9012.600204	0.00473
9012.800204	0.00472
9012.990204	0.00472
9013.200204	0.00470
9013.390204	0.00470
9013.590204	0.00469
9013.800204	0.00468
9013.990204	0.00467
9014.180204	0.00465
9014.390204	0.00464
9014.580204	0.00463
9014.790204	0.00462
9014.990204	0.00461
9015.200204	0.00459
9015.400204	0.00459
9015.600204	0.00459
9015.800204	0.00457
9016.000204	0.00456
9016.200204	0.00454
9016.390204	0.00454
9016.590204	0.00453
9016.800204	0.00452
9016.990204	0.00451
9017.200204	0.00450
9017.390204	0.00450
9017.590204	0.00449
9017.790204	0.00447
9017.990204	0.00448
9018.180204	0.00445
9018.400204	0.00446
9018.590204	0.00444
9018.790204	0.00443
9018.990204	0.00442
9019.190204	0.00442
9019.390204	0.00440
9019.600204	0.00440
9019.800204	0.00439
9021.070204	0.00434
9023.620204	0.00431
9024.950204	0.00431
9026.240204	0.00433
9027.570204	0.00437
9028.980204	0.00442
9030.340204	0.00451
9031.740204	0.00459
9033.170204	0.00469
9034.560204	0.00478
9036.060204	0.00486
9037.540204	0.00495
9039.000204	0.00501
9040.540205	0.00508
9042.060205	0.00511
9043.580205	0.00514
9045.220205	0.00517
9046.790205	0.00519
9048.410205	0.00520
9050.050205	0.00520
9051.670205	0.00520
9053.350205	0.00519
9055.030205	0.00519
9056.700205	0.00518
9058.460205	0.00517
9060.150205	0.00514
9061.980205	0.00513
9063.710205	0.00512
9065.520205	0.00509
9067.310205	0.00506
9069.150205	0.00504
9071.050205	0.00500
9072.880205	0.00497
9074.830205	0.00494
9076.690205	0.00490
9078.650205	0.00486
9080.540205	0.00484
9082.520205	0.00481
9084.480206	0.00479
9086.540206	0.00477
9088.550206	0.00476
9090.590206	0.00477
9092.680206	0.00477
9094.790206	0.00476
9096.840206	0.00476
9098.950206	0.00478
9101.120206	0.00479
9103.280206	0.00480
9105.420206	0.00481
9107.640206	0.00482
9109.820206	0.00483
9112.060206	0.00484
9114.280206	0.00486
9116.610206	0.00486
9118.890206	0.00487
9121.230206	0.00489
9123.500206	0.00490
9125.890206	0.00491
9128.220206	0.00492
9130.620207	0.00493
9133.030207	0.00494
9135.410207	0.00495
9137.870207	0.00495
9140.330207	0.00496
9142.850207	0.00495
9145.310207	0.00494
9147.820207	0.00493
9150.390207	0.00492
9152.860207	0.00491
9155.470207	0.00489
9158.080207	0.00488
9160.630207	0.00487
9163.290207	0.00486
9165.950207	0.00485
9168.620207	0.00483
9171.320207	0.00483
9173.980208	0.00482
9176.750208	0.00481
9179.460208	0.00480
9182.170208	0.00479
9185.010208	0.00478
9187.800208	0.00477
9190.600208	0.00478
9193.470208	0.00478
9196.280208	0.00477
9199.160208	0.00477
9202.120208	0.00477
9205.010208	0.00477
9207.870208	0.00477
9210.850208	0.00478
9213.800208	0.00478
9216.790208	0.00478
9219.870209	0.00478
9222.840209	0.00479
9225.810209	0.00479
9228.950209	0.00478
9232.060209	0.00478
9235.090209	0.00478
9238.210209	0.00479
9241.380209	0.00478
9244.530209	0.00478
9247.720209	0.00478
9250.900209	0.00478
9254.110209	0.00477
9257.310209	0.00477
9260.550209	0.00477
9263.830210	0.00477
9267.170210	0.00475
9270.450210	0.00476
9273.760210	0.00476
9277.130210	0.00474
9280.520210	0.00474
9283.840210	0.00473
9287.250210	0.00473
9290.640210	0.00472
9294.150210	0.00472
9297.530210	0.00472
9301.050210	0.00470
9304.520210	0.00471
9308.010211	0.00470
9311.600211	0.00469
9315.180211	0.00468
9318.750211	0.00468
9322.320211	0.00469
9325.900211	0.00468
9329.530211	0.00469
9333.220211	0.00468
9336.860211	0.00468
9340.560211	0.00467
9344.250211	0.00468
9347.980211	0.00467
9351.730212	0.00468
9355.490212	0.00468
9359.230212	0.00468
9363.040212	0.00468
9366.910212	0.00467
9370.660212	0.00468
9374.570212	0.00467
9378.440212	0.00467
9382.370212	0.00467
9386.220212	0.00466
9390.110212	0.00466
9394.110213	0.00466
9398.130213	0.00465
9402.050213	0.00465
9406.030213	0.00464
9410.110213	0.00464
9414.120213	0.00463
9418.240213	0.00463
9422.290213	0.00462
9426.430213	0.00463
9430.520213	0.00462
9434.630213	0.00462
9438.760214	0.00462
9442.940214	0.00461
9447.140214	0.00460
9451.400214	0.00460
9455.600214	0.00460
9459.880214	0.00460
9464.070214	0.00460
9468.430214	0.00460
9472.720214	0.00459
9477.050214	0.00458
9481.380214	0.00458
9485.770215	0.00458
9490.120215	0.00458
9494.510215	0.00457
9498.960215	0.00457
9503.440215	0.00457
9507.830215	0.00457
9512.310215	0.00456
9516.830215	0.00457
9521.320215	0.00457
9525.850215	0.00455
9530.440216	0.00457
9535.080216	0.00456
9539.540216	0.00456
9544.180216	0.00456
9548.800216	0.00455
9553.500216	0.00455
9558.080216	0.00454
9562.840216	0.00454
9567.540216	0.00454
9572.210217	0.00453
9577.000217	0.00453
9581.770217	0.00453
9586.540217	0.00453
9591.290217	0.00453
9596.140217	0.00452
9600.950217	0.00452
9605.840217	0.00452
9610.710217	0.00451
9615.640218	0.00451
9620.500218	0.00451
9625.340218	0.00450
9630.370218	0.00451
9635.340218	0.00450
9640.350218	0.00450
9645.330218	0.00450
9650.330218	0.00448
9655.430218	0.00449
9660.480219	0.00449
9665.550219	0.00450
9670.620219	0.00449
9675.790219	0.00449
9680.850219	0.00448
9686.060219	0.00448
9691.300219	0.00448
9696.390219	0.00449
9701.620219	0.00447
9706.820220	0.00448
9712.130220	0.00448
9717.380220	0.00447
9722.710220	0.00447
9728.040220	0.00447
9733.230220	0.00446
9738.660220	0.00446
9744.080220	0.00446
9749.350221	0.00445
9754.810221	0.00445
9760.210221	0.00446
9765.650221	0.00445
9771.140221	0.00444
9776.620221	0.00444
9782.100221	0.00443
9787.570221	0.00444
9793.160222	0.00444
9798.700222	0.00443
9804.240222	0.00443
9809.900222	0.00443
9815.430222	0.00443
9821.100222	0.00443
9826.750222	0.00442
