# XDI/1.0
# Column.1: energy(ev)
# Column.2: fluorescence_emission(au)
# Element.symbol: Ga
# Element.edge: K
# Mono.name: Si 2 2 0
# Mono.d_spacing: 1.92
# Beamline.name: FAME
# Sample.name: Gallium bromide solution in hydrothermal conditions: Ga3+ 0.017m, Br- 0.051m
# Sample.temperature: 650.0 +/- 0.1 K
# Sample.pressure: 300.0 +/- 0.5 bar
# Citation.doi:  https://doi.org/10.26302/SSHADE/EXPERIMENT_DT_20180710_002
# Citation.comments: Da Silva, CÃ©cile; Testemale, Denis; Hazemann, Jean-Louis; Proux, Olivier (2006): Ga K edge XAS fluorescence of gallium bromide solution in hydrothermal conditions at 300bars and between 300 and 670K. SSHADE/FAME (OSUG Data Center). Dataset/Spectral Data. https://doi.org/10.26302/SSHADE/EXPERIMENT_DT_20180710_002Schmitt, Bernard; Bollard, Philippe; Albert, Damien; Garenne, Alexandre; Bonal, Lydie; and the SSHADE partner's consortium (2018). SSHADE: 'Solid Spectroscopy Hosting Architecture of Databases and Expertise'. OSUG Data Center. Service/Database infrastructure. https://doi.org/10.26302/SSHADE
# ////
#---------
# energy(ev)	fluorescence_emission(au)
10229.600231	0.04245
10234.900232	0.04174
10239.900232	0.04103
10245.000232	0.04047
10250.000232	0.03973
10255.000232	0.03914
10260.000232	0.03850
10265.000232	0.03815
10270.000232	0.03749
10274.900232	0.03673
10280.000233	0.03632
10285.000233	0.03593
10290.000233	0.03533
10295.000233	0.03482
10300.100233	0.03451
10305.000233	0.03412
10310.000233	0.03363
10315.000233	0.03328
10320.100233	0.03282
10325.000234	0.03273
10330.000234	0.03249
10335.000234	0.03251
10340.000234	0.03214
10345.000234	0.03203
10350.000234	0.03231
10355.000234	0.03277
10360.100234	0.03399
10360.900234	0.03432
10361.900234	0.03489
10363.000234	0.03548
10364.000234	0.03624
10365.000234	0.03719
10366.000234	0.03830
10367.000235	0.03988
10368.000235	0.04181
10369.000235	0.04443
10370.000235	0.04856
10371.000235	0.05531
10371.900235	0.06653
10373.000235	0.09162
10374.000235	0.14094
10375.000235	0.24652
10376.000235	0.41035
10377.000235	0.46195
10378.000235	0.38518
10379.000235	0.32672
10380.000235	0.31018
10381.000235	0.30518
10382.000235	0.29719
10382.900235	0.28564
10384.000235	0.27233
10385.000235	0.26324
10385.900235	0.25723
10387.000235	0.25030
10388.000235	0.24259
10389.000235	0.23451
10390.000235	0.22919
10391.000235	0.22488
10392.000235	0.22190
10393.000235	0.22013
10393.900235	0.21926
10394.900235	0.21830
10396.000235	0.21751
10396.900235	0.21699
10398.000235	0.21647
10398.900235	0.21578
10399.900235	0.21478
10401.000235	0.21382
10402.000235	0.21173
10402.900235	0.20933
10404.000235	0.20675
10405.000235	0.20405
10406.000235	0.20231
10407.000235	0.20116
10408.000235	0.20078
10408.900235	0.20133
10409.900235	0.20247
10411.000236	0.20372
10412.000236	0.20448
10413.000236	0.20582
10414.000236	0.20797
10415.000236	0.20929
10416.000236	0.21175
10417.000236	0.21301
10418.000236	0.21484
10419.000236	0.21703
10421.000236	0.22081
10421.800236	0.22192
10424.800236	0.22540
10426.200236	0.22646
10427.700236	0.22726
10429.300236	0.22717
10430.800236	0.22759
10432.300236	0.22737
10433.900236	0.22685
10435.500236	0.22696
10437.100236	0.22690
10438.700236	0.22681
10440.500236	0.22698
10442.100236	0.22636
10443.800236	0.22628
10445.600236	0.22602
10447.200236	0.22588
10449.000236	0.22519
10450.800236	0.22457
10452.600236	0.22426
10454.400236	0.22391
10456.200237	0.22343
10458.100237	0.22297
10459.900237	0.22280
10461.800237	0.22265
10463.700237	0.22222
10465.600237	0.22147
10467.500237	0.22126
10469.500237	0.22121
10471.500237	0.22071
10473.500237	0.21978
10475.500237	0.21880
10477.500237	0.21780
10479.500237	0.21663
10481.700237	0.21578
10483.700237	0.21526
10485.900237	0.21425
10488.000237	0.21355
10490.100237	0.21321
10492.300237	0.21243
10494.400237	0.21210
10496.700237	0.21206
10498.900237	0.21221
10501.100238	0.21352
10503.400238	0.21402
10505.700238	0.21478
10508.000238	0.21584
10510.300238	0.21675
10512.600238	0.21691
10515.000238	0.21836
10517.300238	0.21844
10519.800238	0.21908
10522.100238	0.21912
10524.600238	0.21950
10527.100238	0.21917
10529.500238	0.21924
10532.000238	0.21946
10534.400238	0.21865
10537.100238	0.21813
10539.500238	0.21746
10542.100238	0.21702
10544.700239	0.21570
10547.300239	0.21491
10549.900239	0.21400
10552.500239	0.21295
10555.200239	0.21225
10557.900239	0.21150
10560.600239	0.21105
10563.300239	0.21029
10566.000239	0.20929
10568.700239	0.20896
10571.500239	0.20863
10574.300239	0.20847
10577.100239	0.20863
10580.000239	0.20841
10582.800239	0.20858
10585.700239	0.20861
10588.500240	0.20881
10591.400240	0.20947
10594.300240	0.20975
10597.300240	0.21019
10600.300240	0.21038
10603.200240	0.21035
10606.200240	0.21064
10609.200240	0.21075
10612.300240	0.21073
10615.300240	0.21074
10618.400240	0.21050
10621.400240	0.21028
10624.600240	0.21001
10627.600240	0.20966
10630.900240	0.20896
10634.000241	0.20860
10637.200241	0.20781
10640.400241	0.20718
10643.700241	0.20643
10646.900241	0.20564
10650.100241	0.20511
10653.400241	0.20463
10656.700241	0.20414
10660.100241	0.20403
10663.400241	0.20343
10666.700241	0.20310
10670.100241	0.20265
10673.400241	0.20278
10676.900242	0.20256
10680.300242	0.20249
10683.800242	0.20237
10687.200242	0.20247
10690.700242	0.20238
10694.200242	0.20291
10697.700242	0.20254
10701.300242	0.20246
10704.800242	0.20283
10708.400242	0.20250
10712.100242	0.20270
10715.600242	0.20252
10719.300242	0.20229
10722.900243	0.20232
10726.600243	0.20177
10730.300243	0.20157
10734.000243	0.20124
10737.700243	0.20080
10741.500243	0.20065
10745.300243	0.20025
10749.100243	0.19968
10752.900243	0.19933
10756.700243	0.19895
10760.600243	0.19846
10764.400244	0.19818
10768.200244	0.19794
10772.200244	0.19744
10776.100244	0.19723
10780.100244	0.19649
10784.000244	0.19681
10788.000244	0.19675
10791.900244	0.19641
10796.000244	0.19612
10800.100244	0.19620
10804.000244	0.19593
10808.100244	0.19571
10812.300245	0.19581
10816.300245	0.19564
10820.500245	0.19540
10824.700245	0.19538
10828.700245	0.19542
10833.000245	0.19529
10837.100245	0.19500
10841.300245	0.19462
10845.700245	0.19468
10849.900245	0.19450
10854.200246	0.19406
10858.500246	0.19392
10862.800246	0.19353
10867.100246	0.19327
10871.400246	0.19272
10875.800246	0.19228
10880.200246	0.19168
10884.700246	0.19138
10889.100246	0.19121
10893.500246	0.19077
10898.000247	0.19026
10902.500247	0.19017
10906.900247	0.18984
10911.500247	0.18955
10916.000247	0.18927
10920.600247	0.18917
10925.300247	0.18893
10929.700247	0.18879
10934.400247	0.18859
10939.000247	0.18802
10943.700248	0.18816
10948.300248	0.18787
10953.000248	0.18751
10957.800248	0.18752
10962.500248	0.18722
10967.300248	0.18680
10972.000248	0.18683
10976.700248	0.18691
10981.600248	0.18638
10986.400249	0.18646
10991.300249	0.18598
10996.100249	0.18575
11001.000249	0.18564
11006.000249	0.18557
11010.800249	0.18532
11015.700249	0.18516
11020.700249	0.18477
11025.700249	0.18459
11030.800250	0.18439
11035.700250	0.18407
11040.800250	0.18384
11045.800250	0.18365
11050.900250	0.18342
11056.000250	0.18291
11061.100250	0.18308
11066.200250	0.18296
11071.400250	0.18270
11076.500251	0.18264
11081.600251	0.18267
11086.900251	0.18234
11092.100251	0.18223
11097.400251	0.18229
11102.600251	0.18219
11107.900251	0.18345
11113.200251	0.18435
11118.600252	0.18390
11123.800252	0.18323
11129.100252	0.18306
11134.600252	0.18286
11140.000252	0.18275
11145.400252	0.18255
11150.800252	0.18250
11156.300252	0.18229
11161.600252	0.18195
11167.200253	0.18201
11172.700253	0.18175
11178.300253	0.18156
11183.800253	0.18160
11189.300253	0.18145
11194.900253	0.18117
11200.500253	0.18102
11206.100253	0.18095
11211.700254	0.18062
11217.500254	0.18023
11223.200254	0.18006
11228.800254	0.17971
11234.500254	0.17960
11240.200254	0.17965
11246.000254	0.17955
11251.800255	0.17920
11257.600255	0.17899
11263.400255	0.17878
11269.200255	0.17854
11275.000255	0.17829
11280.900255	0.17798
11286.800255	0.17807
11292.700255	0.17802
11298.500256	0.17766
11304.500256	0.17749
11310.500256	0.17712
11316.400256	0.17688
11322.500256	0.17679
11328.500256	0.17656
