# XDI/1.0
# Column.1: energy(ev)
# Column.2: fluorescence_emission(au)
# Element.symbol: Ga
# Element.edge: K
# Mono.name: Si 2 2 0
# Mono.d_spacing: 1.92
# Beamline.name: FAME
# Sample.name: Gallium bromide solution in hydrothermal conditions: Ga3+ 0.017m, Br- 0.051m
# Sample.temperature: 470.0 +/- 0.1 K
# Sample.pressure: 300.0 +/- 0.5 bar
# Citation.doi:  https://doi.org/10.26302/SSHADE/EXPERIMENT_DT_20180710_002
# Citation.comments: Da Silva, CÃ©cile; Testemale, Denis; Hazemann, Jean-Louis; Proux, Olivier (2006): Ga K edge XAS fluorescence of gallium bromide solution in hydrothermal conditions at 300bars and between 300 and 670K. SSHADE/FAME (OSUG Data Center). Dataset/Spectral Data. https://doi.org/10.26302/SSHADE/EXPERIMENT_DT_20180710_002Schmitt, Bernard; Bollard, Philippe; Albert, Damien; Garenne, Alexandre; Bonal, Lydie; and the SSHADE partner's consortium (2018). SSHADE: 'Solid Spectroscopy Hosting Architecture of Databases and Expertise'. OSUG Data Center. Service/Database infrastructure. https://doi.org/10.26302/SSHADE
# ////
#---------
# energy(ev)	fluorescence_emission(au)
10229.600231	0.03946
10234.900232	0.03876
10239.900232	0.03797
10245.000232	0.03738
10250.000232	0.03691
10254.900232	0.03633
10260.000232	0.03555
10265.000232	0.03508
10270.000232	0.03450
10275.000232	0.03437
10280.000233	0.03367
10285.000233	0.03303
10290.100233	0.03256
10295.000233	0.03207
10300.100233	0.03170
10305.000233	0.03148
10310.000233	0.03087
10315.000233	0.03057
10320.000233	0.03004
10325.100234	0.02968
10330.000234	0.02929
10335.000234	0.02935
10340.000234	0.02917
10345.000234	0.02871
10350.000234	0.02863
10355.000234	0.02855
10360.000234	0.02872
10360.900234	0.02871
10361.900234	0.02876
10363.000234	0.02890
10364.000234	0.02895
10364.900234	0.02927
10365.900234	0.02937
10367.000235	0.02983
10368.000235	0.03025
10368.900235	0.03069
10370.000235	0.03167
10370.900235	0.03286
10372.000235	0.03490
10373.000235	0.03896
10374.000235	0.04583
10375.000235	0.05882
10376.000235	0.08178
10376.900235	0.11697
10377.900235	0.14919
10379.000235	0.16798
10379.900235	0.17505
10381.000235	0.17988
10381.900235	0.17451
10383.000235	0.15637
10384.000235	0.13653
10384.900235	0.12142
10386.000235	0.10950
10387.000235	0.10139
10388.000235	0.09567
10388.900235	0.09121
10390.000235	0.08782
10391.000235	0.08567
10392.000235	0.08446
10393.000235	0.08482
10393.900235	0.08517
10395.000235	0.08482
10396.000235	0.08488
10397.000235	0.08519
10398.000235	0.08569
10398.900235	0.08625
10399.900235	0.08651
10401.000235	0.08629
10401.900235	0.08485
10403.000235	0.08259
10403.900235	0.08016
10404.900235	0.07709
10406.000235	0.07459
10407.000235	0.07325
10407.900235	0.07226
10408.900235	0.07149
10410.000235	0.07189
10411.000236	0.07232
10412.000236	0.07311
10413.000236	0.07363
10414.000236	0.07472
10415.000236	0.07580
10415.900236	0.07698
10416.900236	0.07823
10418.000236	0.08036
10419.000236	0.08230
10421.000236	0.08580
10421.800236	0.08707
10424.800236	0.09034
10426.200236	0.09127
10427.700236	0.09173
10429.300236	0.09180
10430.800236	0.09157
10432.300236	0.09120
10433.900236	0.09080
10435.500236	0.09048
10437.100236	0.09042
10438.700236	0.09027
10440.500236	0.08997
10442.100236	0.08947
10443.800236	0.08880
10445.600236	0.08788
10447.200236	0.08703
10449.000236	0.08614
10450.800236	0.08523
10452.600236	0.08453
10454.400236	0.08380
10456.200237	0.08326
10458.000237	0.08235
10459.900237	0.08165
10461.800237	0.08104
10463.700237	0.08058
10465.600237	0.08016
10467.500237	0.07998
10469.500237	0.07984
10471.500237	0.07963
10473.500237	0.07950
10475.500237	0.07930
10477.500237	0.07913
10479.600237	0.07906
10481.700237	0.07878
10483.700237	0.07881
10485.900237	0.07885
10488.000237	0.07877
10490.100237	0.07872
10492.300237	0.07855
10494.500237	0.07859
10496.700237	0.07851
10498.900237	0.07862
10501.100238	0.07864
10503.400238	0.07896
10505.600238	0.07923
10508.000238	0.07967
10510.300238	0.07981
10512.600238	0.07985
10515.000238	0.08009
10517.300238	0.07994
10519.700238	0.07981
10522.100238	0.07953
10524.600238	0.07939
10527.000238	0.07902
10529.500238	0.07881
10532.000238	0.07824
10534.400238	0.07783
10537.000238	0.07758
10539.500238	0.07701
10542.100238	0.07659
10544.700239	0.07600
10547.300239	0.07582
10549.900239	0.07552
10552.500239	0.07511
10555.200239	0.07524
10557.900239	0.07489
10560.600239	0.07495
10563.300239	0.07480
10566.000239	0.07478
10568.700239	0.07485
10571.500239	0.07462
10574.300239	0.07462
10577.100239	0.07445
10580.000239	0.07433
10582.800239	0.07415
10585.600239	0.07404
10588.500240	0.07395
10591.400240	0.07369
10594.300240	0.07349
10597.300240	0.07294
10600.300240	0.07288
10603.200240	0.07266
10606.200240	0.07243
10609.200240	0.07230
10612.300240	0.07215
10615.300240	0.07193
10618.400240	0.07204
10621.500240	0.07186
10624.700240	0.07189
10627.700240	0.07183
10630.800240	0.07184
10634.000241	0.07162
10637.200241	0.07151
10640.400241	0.07134
10643.700241	0.07120
10646.900241	0.07111
10650.100241	0.07093
10653.400241	0.07061
10656.700241	0.07047
10660.100241	0.07008
10663.400241	0.07006
10666.700241	0.06962
10670.000241	0.06951
10673.500241	0.06936
10677.000242	0.06913
10680.300242	0.06892
10683.800242	0.06856
10687.200242	0.06843
10690.700242	0.06841
10694.200242	0.06804
10697.700242	0.06810
10701.300242	0.06793
10704.800242	0.06786
10708.400242	0.06781
10712.100242	0.06761
10715.600242	0.06752
10719.300242	0.06725
10723.000243	0.06722
10726.600243	0.06695
10730.300243	0.06679
10734.000243	0.06682
10737.700243	0.06645
10741.500243	0.06636
10745.300243	0.06616
10749.100243	0.06612
10752.900243	0.06575
10756.700243	0.06574
10760.500243	0.06555
10764.400244	0.06521
10768.200244	0.06538
10772.200244	0.06518
10776.100244	0.06499
10780.000244	0.06495
10784.000244	0.06470
10788.000244	0.06457
10791.900244	0.06447
10796.000244	0.06446
10800.000244	0.06406
10804.000244	0.06392
10808.100244	0.06387
10812.300245	0.06368
10816.300245	0.06362
10820.500245	0.06350
10824.700245	0.06338
10828.700245	0.06318
10833.000245	0.06302
10837.200245	0.06288
10841.300245	0.06267
10845.600245	0.06263
10849.900245	0.06239
10854.200246	0.06227
10858.500246	0.06211
10862.800246	0.06200
10867.100246	0.06184
10871.400246	0.06172
10875.800246	0.06156
10880.200246	0.06145
10884.600246	0.06130
10889.100246	0.06115
10893.500246	0.06094
10898.000247	0.06098
10902.500247	0.06094
10906.900247	0.06067
10911.500247	0.06054
10916.000247	0.06043
10920.600247	0.06043
10925.300247	0.06013
10929.700247	0.06016
10934.300247	0.06004
10939.000247	0.05984
10943.700248	0.05979
10948.300248	0.05966
10953.000248	0.05956
10957.800248	0.05941
10962.500248	0.05925
10967.200248	0.05922
10972.000248	0.05896
10976.700248	0.05907
10981.600248	0.05891
10986.400249	0.05873
10991.300249	0.05866
10996.100249	0.05846
11001.100249	0.05840
11006.000249	0.05830
11010.800249	0.05823
11015.700249	0.05805
11020.700249	0.05801
11025.700249	0.05787
11030.700250	0.05779
11035.700250	0.05775
11040.800250	0.05761
11045.800250	0.05757
11050.900250	0.05742
11056.000250	0.05740
11061.100250	0.05733
11066.200250	0.05722
11071.300250	0.05714
11076.500251	0.05699
11081.700251	0.05695
11086.900251	0.05681
11092.100251	0.05682
11097.400251	0.05679
11102.600251	0.05668
11108.000251	0.05819
11113.200251	0.05895
11118.500252	0.05851
11123.800252	0.05816
11129.100252	0.05804
11134.600252	0.05797
11139.900252	0.05791
11145.400252	0.05788
11150.800252	0.05785
11156.300252	0.05771
11161.700252	0.05766
11167.200253	0.05747
11172.700253	0.05737
11178.300253	0.05742
11183.800253	0.05728
11189.300253	0.05724
11195.000253	0.05712
11200.500253	0.05708
11206.100253	0.05699
11211.800254	0.05691
11217.500254	0.05687
11223.200254	0.05676
11228.800254	0.05679
11234.500254	0.05684
11240.200254	0.05674
11246.000254	0.05678
11251.800255	0.05663
11257.500255	0.05662
11263.400255	0.05660
11269.200255	0.05652
11275.000255	0.05652
11280.900255	0.05654
11286.800255	0.05650
11292.700255	0.05662
11298.500256	0.05652
11304.500256	0.05654
11310.500256	0.05641
11316.400256	0.05654
11322.500256	0.05653
11328.500256	0.05665
