# XDI/1.0
# Column.1: energy(ev)
# Column.2: fluorescence_emission(au)
# Element.symbol: Ga
# Element.edge: K
# Mono.name: Si 2 2 0
# Mono.d_spacing: 1.92
# Beamline.name: FAME
# Sample.name: Gallium bromide solution in hydrothermal conditions: Ga3+ 0.017m, Br- 0.051m
# Sample.temperature: 605.0 +/- 0.1 K
# Sample.pressure: 300.0 +/- 0.5 bar
# Citation.doi:  https://doi.org/10.26302/SSHADE/EXPERIMENT_DT_20180710_002
# Citation.comments: Da Silva, CÃ©cile; Testemale, Denis; Hazemann, Jean-Louis; Proux, Olivier (2006): Ga K edge XAS fluorescence of gallium bromide solution in hydrothermal conditions at 300bars and between 300 and 670K. SSHADE/FAME (OSUG Data Center). Dataset/Spectral Data. https://doi.org/10.26302/SSHADE/EXPERIMENT_DT_20180710_002Schmitt, Bernard; Bollard, Philippe; Albert, Damien; Garenne, Alexandre; Bonal, Lydie; and the SSHADE partner's consortium (2018). SSHADE: 'Solid Spectroscopy Hosting Architecture of Databases and Expertise'. OSUG Data Center. Service/Database infrastructure. https://doi.org/10.26302/SSHADE
# ////
#---------
# energy(ev)	fluorescence_emission(au)
10229.600231	0.04102
10234.900232	0.04038
10240.000232	0.03941
10245.000232	0.03890
10250.000232	0.03838
10255.000232	0.03787
10260.000232	0.03709
10265.000232	0.03654
10270.000232	0.03621
10275.000232	0.03551
10280.000233	0.03499
10285.000233	0.03455
10290.100233	0.03402
10295.000233	0.03359
10300.100233	0.03319
10305.000233	0.03291
10310.000233	0.03231
10315.000233	0.03202
10320.000233	0.03152
10325.100234	0.03136
10330.000234	0.03102
10335.000234	0.03082
10340.000234	0.03067
10345.000234	0.03023
10350.100234	0.03030
10355.000234	0.03059
10360.000234	0.03115
10360.900234	0.03105
10361.900234	0.03132
10363.000234	0.03180
10364.000234	0.03188
10364.900234	0.03234
10366.000234	0.03292
10367.000235	0.03348
10368.000235	0.03460
10369.000235	0.03580
10370.000235	0.03735
10371.000235	0.04010
10371.900235	0.04469
10373.000235	0.05442
10374.000235	0.07072
10375.000235	0.10237
10376.000235	0.15665
10376.900235	0.20772
10378.000235	0.23670
10379.000235	0.24283
10380.000235	0.24430
10381.000235	0.24790
10382.000235	0.24525
10383.000235	0.22739
10384.000235	0.20404
10384.900235	0.18459
10386.000235	0.16687
10387.000235	0.15573
10387.900235	0.14804
10389.000235	0.14236
10390.000235	0.13830
10391.000235	0.13597
10392.000235	0.13415
10393.000235	0.13507
10394.000235	0.13529
10395.000235	0.13551
10395.900235	0.13588
10397.000235	0.13619
10398.000235	0.13624
10398.900235	0.13600
10399.900235	0.13647
10401.000235	0.13486
10402.000235	0.13282
10402.900235	0.12996
10404.000235	0.12588
10404.900235	0.12257
10406.000235	0.11882
10407.000235	0.11717
10408.000235	0.11602
10409.000235	0.11578
10410.000235	0.11672
10411.000236	0.11766
10412.000236	0.11860
10413.000236	0.11978
10414.000236	0.12114
10415.000236	0.12275
10416.000236	0.12487
10416.900236	0.12693
10418.000236	0.12968
10419.000236	0.13253
10421.000236	0.13718
10421.800236	0.13934
10424.800236	0.14402
10426.200236	0.14545
10427.700236	0.14551
10429.200236	0.14607
10430.800236	0.14553
10432.300236	0.14616
10434.000236	0.14564
10435.500236	0.14530
10437.100236	0.14511
10438.700236	0.14491
10440.500236	0.14434
10442.100236	0.14407
10443.800236	0.14382
10445.500236	0.14325
10447.300236	0.14238
10449.000236	0.14198
10450.800236	0.14066
10452.600236	0.13985
10454.400236	0.13911
10456.200237	0.13801
10458.100237	0.13734
10459.900237	0.13608
10461.800237	0.13583
10463.700237	0.13502
10465.600237	0.13476
10467.500237	0.13398
10469.500237	0.13471
10471.400237	0.13400
10473.500237	0.13417
10475.500237	0.13376
10477.500237	0.13352
10479.600237	0.13244
10481.700237	0.13257
10483.700237	0.13296
10485.900237	0.13288
10488.000237	0.13303
10490.100237	0.13246
10492.300237	0.13199
10494.400237	0.13197
10496.700237	0.13193
10498.900237	0.13217
10501.100238	0.13207
10503.400238	0.13278
10505.700238	0.13330
10508.000238	0.13331
10510.300238	0.13489
10512.600238	0.13442
10515.000238	0.13528
10517.300238	0.13525
10519.800238	0.13419
10522.100238	0.13435
10524.600238	0.13430
10527.000238	0.13383
10529.500238	0.13363
10532.000238	0.13383
10534.400238	0.13283
10537.100238	0.13232
10539.600238	0.13185
10542.100238	0.13145
10544.700239	0.13093
10547.300239	0.13011
10549.900239	0.12943
10552.500239	0.12907
10555.200239	0.12931
10557.800239	0.12881
10560.600239	0.12882
10563.300239	0.12874
10566.000239	0.12822
10568.700239	0.12823
10571.600239	0.12808
10574.300239	0.12796
10577.100239	0.12872
10580.000239	0.12709
10582.800239	0.12753
10585.600239	0.12694
10588.500240	0.12760
10591.400240	0.12704
10594.400240	0.12692
10597.300240	0.12686
10600.300240	0.12678
10603.200240	0.12652
10606.200240	0.12613
10609.200240	0.12555
10612.300240	0.12609
10615.200240	0.12553
10618.400240	0.12559
10621.500240	0.12526
10624.600240	0.12470
10627.700240	0.12500
10630.900240	0.12495
10634.000241	0.12533
10637.200241	0.12503
10640.400241	0.12460
10643.700241	0.12438
10646.900241	0.12392
10650.100241	0.12404
10653.400241	0.12361
10656.700241	0.12320
10660.100241	0.12335
10663.400241	0.12291
10666.700241	0.12269
10670.100241	0.12171
10673.400241	0.12222
10676.900242	0.12184
10680.300242	0.12161
10683.800242	0.12160
10687.200242	0.12170
10690.700242	0.12091
10694.200242	0.12098
10697.700242	0.12095
10701.300242	0.12083
10704.800242	0.12094
10708.400242	0.12066
10712.100242	0.12031
10715.700242	0.12041
10719.300242	0.12049
10723.000243	0.12047
10726.600243	0.12011
10730.300243	0.12004
10734.000243	0.11983
10737.700243	0.11938
10741.500243	0.11940
10745.300243	0.11956
10749.100243	0.11897
10752.900243	0.11890
10756.700243	0.11875
10760.600243	0.11870
10764.400244	0.11811
10768.200244	0.11840
10772.200244	0.11770
10776.100244	0.11806
10780.000244	0.11681
10784.000244	0.11750
10788.000244	0.11744
10791.900244	0.11661
10796.000244	0.11679
10800.000244	0.11650
10804.000244	0.11615
10808.200244	0.11616
10812.200245	0.11633
10816.300245	0.11605
10820.500245	0.11579
10824.600245	0.11593
10828.700245	0.11549
10833.000245	0.11567
10837.100245	0.11514
10841.400245	0.11524
10845.600245	0.11485
10849.900245	0.11507
10854.100246	0.11463
10858.500246	0.11450
10862.800246	0.11409
10867.100246	0.11379
10871.400246	0.11342
10875.800246	0.11313
10880.200246	0.11280
10884.600246	0.11262
10889.100246	0.11233
10893.500246	0.11220
10898.000247	0.11203
10902.500247	0.11232
10906.900247	0.11181
10911.500247	0.11151
10916.000247	0.11133
10920.600247	0.11144
10925.300247	0.11119
10929.700247	0.11104
10934.300247	0.11060
10939.000247	0.11010
10943.700248	0.11002
10948.300248	0.11011
10953.000248	0.10957
10957.800248	0.10946
10962.500248	0.10925
10967.300248	0.10894
10972.000248	0.10867
10976.800248	0.10865
10981.600248	0.10845
10986.500249	0.10825
10991.300249	0.10803
10996.100249	0.10760
11001.000249	0.10784
11006.000249	0.10809
11010.800249	0.10771
11015.700249	0.10771
11020.700249	0.10770
11025.700249	0.10764
11030.800250	0.10720
11035.700250	0.10751
11040.700250	0.10718
11045.800250	0.10725
11050.900250	0.10743
11055.900250	0.10701
11061.100250	0.10736
11066.200250	0.10689
11071.400250	0.10695
11076.500251	0.10680
11081.700251	0.10695
11086.900251	0.10685
11092.100251	0.10687
11097.400251	0.10746
11102.600251	0.10737
11107.900251	0.10850
11113.200251	0.10935
11118.500252	0.10935
11123.800252	0.10862
11129.100252	0.10870
11134.600252	0.10909
11140.000252	0.10854
11145.400252	0.10874
11150.800252	0.10884
11156.300252	0.10859
11161.700252	0.10859
11167.200253	0.10846
11172.700253	0.10855
11178.300253	0.10837
11183.800253	0.10870
11189.300253	0.10841
11194.900253	0.10860
11200.500253	0.10892
11206.100253	0.10865
11211.700254	0.10877
11217.500254	0.10840
11223.100254	0.10873
11228.800254	0.10817
11234.500254	0.10817
11240.200254	0.10808
11246.000254	0.10831
11251.800255	0.10801
11257.500255	0.10774
11263.400255	0.10760
11269.200255	0.10766
11275.000255	0.10705
11280.900255	0.10714
11286.800255	0.10714
11292.700255	0.10742
11298.500256	0.10675
11304.500256	0.10706
11310.500256	0.10669
11316.400256	0.10656
11322.500256	0.10623
11328.500256	0.10601
