# XDI/1.0
# Column.1: energy(ev)
# Column.2: fluorescence_emission(au)
# Element.symbol: Ga
# Element.edge: K
# Mono.name: Si 2 2 0
# Mono.d_spacing: 1.92
# Beamline.name: FAME
# Sample.name: Gallium bromide solution in hydrothermal conditions: Ga3+ 0.017m, Br- 0.051m
# Sample.temperature: 370.0 +/- 0.1 K
# Sample.pressure: 300.0 +/- 0.5 bar
# Citation.doi:  https://doi.org/10.26302/SSHADE/EXPERIMENT_DT_20180710_002
# Citation.comments: Da Silva, CÃ©cile; Testemale, Denis; Hazemann, Jean-Louis; Proux, Olivier (2006): Ga K edge XAS fluorescence of gallium bromide solution in hydrothermal conditions at 300bars and between 300 and 670K. SSHADE/FAME (OSUG Data Center). Dataset/Spectral Data. https://doi.org/10.26302/SSHADE/EXPERIMENT_DT_20180710_002Schmitt, Bernard; Bollard, Philippe; Albert, Damien; Garenne, Alexandre; Bonal, Lydie; and the SSHADE partner's consortium (2018). SSHADE: 'Solid Spectroscopy Hosting Architecture of Databases and Expertise'. OSUG Data Center. Service/Database infrastructure. https://doi.org/10.26302/SSHADE
# ////
#---------
# energy(ev)	fluorescence_emission(au)
10229.600231	0.03856
10234.900232	0.03800
10239.900232	0.03720
10245.000232	0.03673
10250.000232	0.03612
10254.900232	0.03564
10260.000232	0.03506
10265.000232	0.03452
10270.000232	0.03379
10274.900232	0.03369
10280.000233	0.03337
10285.000233	0.03308
10290.000233	0.03266
10295.000233	0.03229
10300.100233	0.03181
10305.000233	0.03154
10310.000233	0.03149
10315.000233	0.03125
10320.000233	0.03128
10325.100234	0.03120
10330.000234	0.03119
10335.000234	0.03147
10340.000234	0.03193
10344.900234	0.03234
10350.000234	0.03309
10355.000234	0.03503
10360.000234	0.03821
10360.900234	0.03926
10362.000234	0.04044
10363.000234	0.04173
10364.000234	0.04327
10364.900234	0.04486
10365.900234	0.04720
10367.000235	0.05000
10368.000235	0.05341
10369.000235	0.05806
10369.900235	0.06349
10371.000235	0.07236
10371.900235	0.08440
10373.000235	0.10550
10373.900235	0.14197
10375.000235	0.20418
10376.000235	0.30952
10377.000235	0.53313
10378.000235	0.87146
10379.000235	1.17958
10380.000235	1.34545
10381.000235	1.32123
10382.000235	1.20671
10383.000235	1.06946
10384.000235	0.93197
10385.000235	0.80447
10386.000235	0.70422
10387.000235	0.62067
10388.000235	0.55747
10389.000235	0.51768
10390.000235	0.49573
10391.000235	0.48615
10392.000235	0.48415
10392.900235	0.48542
10393.900235	0.48820
10395.000235	0.49062
10395.900235	0.49068
10396.900235	0.48867
10398.000235	0.48630
10398.900235	0.48220
10399.900235	0.47720
10401.000235	0.46969
10402.000235	0.45991
10403.000235	0.44932
10404.000235	0.43856
10404.900235	0.42682
10406.000235	0.41480
10406.900235	0.40544
10408.000235	0.39742
10408.900235	0.39125
10410.000235	0.38733
10410.900236	0.38639
10412.000236	0.38865
10413.000236	0.39404
10413.900236	0.40289
10415.000236	0.41566
10416.000236	0.42939
10417.000236	0.44653
10418.000236	0.46448
10419.000236	0.48327
10421.000236	0.51970
10421.800236	0.53198
10424.800236	0.56096
10426.200236	0.56641
10427.700236	0.57065
10429.300236	0.57245
10430.800236	0.57259
10432.300236	0.57274
10433.900236	0.57301
10435.600236	0.57299
10437.100236	0.57191
10438.700236	0.57053
10440.400236	0.56759
10442.100236	0.56344
10443.800236	0.55813
10445.600236	0.55216
10447.300236	0.54617
10449.000236	0.53921
10450.800236	0.53225
10452.600236	0.52497
10454.400236	0.51802
10456.100237	0.51160
10458.100237	0.50471
10459.900237	0.49891
10461.800237	0.49291
10463.700237	0.48820
10465.600237	0.48471
10467.500237	0.48159
10469.500237	0.47960
10471.400237	0.47876
10473.500237	0.47943
10475.500237	0.47958
10477.500237	0.48117
10479.500237	0.48255
10481.600237	0.48452
10483.800237	0.48720
10485.900237	0.48979
10488.000237	0.49183
10490.100237	0.49417
10492.200237	0.49635
10494.400237	0.49872
10496.700237	0.50064
10498.900237	0.50242
10501.100238	0.50478
10503.400238	0.50751
10505.700238	0.50976
10508.000238	0.51278
10510.300238	0.51478
10512.600238	0.51630
10515.000238	0.51619
10517.300238	0.51622
10519.800238	0.51439
10522.100238	0.51338
10524.600238	0.51218
10527.100238	0.51074
10529.500238	0.50865
10532.000238	0.50624
10534.400238	0.50385
10537.100238	0.50122
10539.500238	0.49922
10542.100238	0.49650
10544.700239	0.49486
10547.300239	0.49294
10549.900239	0.49117
10552.500239	0.49010
10555.200239	0.48951
10557.900239	0.48903
10560.600239	0.48877
10563.300239	0.48784
10566.000239	0.48718
10568.700239	0.48649
10571.600239	0.48600
10574.300239	0.48597
10577.100239	0.48579
10580.000239	0.48641
10582.800239	0.48555
10585.600239	0.48543
10588.500240	0.48523
10591.400240	0.48510
10594.300240	0.48503
10597.300240	0.48492
10600.300240	0.48479
10603.200240	0.48461
10606.200240	0.48497
10609.200240	0.48532
10612.300240	0.48534
10615.300240	0.48540
10618.400240	0.48577
10621.500240	0.48595
10624.600240	0.48602
10627.700240	0.48554
10630.900240	0.48511
10634.000241	0.48497
10637.200241	0.48437
10640.400241	0.48310
10643.700241	0.48245
10646.900241	0.48134
10650.100241	0.48028
10653.400241	0.47862
10656.700241	0.47769
10660.100241	0.47683
10663.400241	0.47518
10666.700241	0.47424
10670.100241	0.47359
10673.400241	0.47234
10676.900242	0.47120
10680.300242	0.47043
10683.800242	0.46996
10687.200242	0.46924
10690.700242	0.46872
10694.200242	0.46780
10697.700242	0.46789
10701.300242	0.46754
10704.800242	0.46720
10708.400242	0.46639
10712.100242	0.46574
10715.600242	0.46601
10719.300242	0.46534
10723.000243	0.46544
10726.600243	0.46467
10730.300243	0.46453
10734.000243	0.46409
10737.700243	0.46376
10741.500243	0.46293
10745.300243	0.46278
10749.100243	0.46222
10752.900243	0.46169
10756.700243	0.46116
10760.500243	0.46061
10764.400244	0.46023
10768.200244	0.45993
10772.200244	0.45885
10776.100244	0.45844
10780.100244	0.45756
10784.000244	0.45728
10788.000244	0.45692
10791.900244	0.45613
10796.000244	0.45505
10800.000244	0.45495
10804.000244	0.45406
10808.100244	0.45298
10812.300245	0.45226
10816.300245	0.45206
10820.500245	0.45098
10824.700245	0.45030
10828.700245	0.44964
10833.000245	0.44899
10837.100245	0.44822
10841.400245	0.44806
10845.600245	0.44743
10849.900245	0.44702
10854.100246	0.44651
10858.500246	0.44565
10862.800246	0.44493
10867.100246	0.44470
10871.400246	0.44417
10875.800246	0.44391
10880.200246	0.44368
10884.600246	0.44287
10889.100246	0.44259
10893.500246	0.44221
10898.000247	0.44142
10902.500247	0.44064
10906.900247	0.44072
10911.500247	0.44008
10916.000247	0.43953
10920.600247	0.43897
10925.300247	0.43897
10929.700247	0.43826
10934.400247	0.43730
10939.000247	0.43662
10943.700248	0.43628
10948.300248	0.43609
10953.000248	0.43492
10957.800248	0.43477
10962.500248	0.43383
10967.300248	0.43364
10972.000248	0.43269
10976.700248	0.43171
10981.600248	0.43173
10986.400249	0.43079
10991.300249	0.43023
10996.100249	0.42985
11001.000249	0.42920
11006.000249	0.42917
11010.800249	0.42839
11015.700249	0.42797
11020.700249	0.42765
11025.800249	0.42715
11030.800250	0.42699
11035.700250	0.42647
11040.700250	0.42618
11045.800250	0.42529
11050.900250	0.42527
11056.000250	0.42456
11061.100250	0.42445
11066.200250	0.42375
11071.300250	0.42385
11076.500251	0.42301
11081.700251	0.42308
11086.900251	0.42247
11092.100251	0.42222
11097.400251	0.42178
11102.600251	0.42144
11107.900251	0.42323
11113.200251	0.42312
11118.500252	0.42246
11123.800252	0.42159
11129.100252	0.42114
11134.600252	0.42095
11140.000252	0.42084
11145.400252	0.41987
11150.800252	0.41955
11156.300252	0.41903
11161.700252	0.41837
11167.200253	0.41801
11172.700253	0.41776
11178.300253	0.41763
11183.800253	0.41673
11189.300253	0.41658
11194.900253	0.41610
11200.500253	0.41558
11206.100253	0.41509
11211.800254	0.41496
11217.500254	0.41396
11223.100254	0.41405
11228.800254	0.41346
11234.500254	0.41359
11240.200254	0.41275
11246.000254	0.41259
11251.700255	0.41216
11257.500255	0.41154
11263.400255	0.41135
11269.200255	0.41075
11275.000255	0.41061
11280.900255	0.41003
11286.800255	0.41004
11292.700255	0.40956
11298.500256	0.40928
11304.500256	0.40911
11310.500256	0.40846
11316.400256	0.40790
11322.500256	0.40797
11328.600256	0.40745
