# XDI/1.0
# Column.1: energy(ev)
# Column.2: fluorescence_emission(au)
# Element.symbol: Ga
# Element.edge: K
# Mono.name: Si 2 2 0
# Mono.d_spacing: 1.92
# Beamline.name: FAME
# Sample.name: Gallium bromide solution in hydrothermal conditions: Ga3+ 0.017m, Br- 0.051m
# Sample.temperature: 300.0 +/- 0.1 K
# Sample.pressure: 300.0 +/- 0.5 bar
# Citation.doi:  https://doi.org/10.26302/SSHADE/EXPERIMENT_DT_20180710_002
# Citation.comments: Da Silva, CÃ©cile; Testemale, Denis; Hazemann, Jean-Louis; Proux, Olivier (2006): Ga K edge XAS fluorescence of gallium bromide solution in hydrothermal conditions at 300bars and between 300 and 670K. SSHADE/FAME (OSUG Data Center). Dataset/Spectral Data. https://doi.org/10.26302/SSHADE/EXPERIMENT_DT_20180710_002Schmitt, Bernard; Bollard, Philippe; Albert, Damien; Garenne, Alexandre; Bonal, Lydie; and the SSHADE partner's consortium (2018). SSHADE: 'Solid Spectroscopy Hosting Architecture of Databases and Expertise'. OSUG Data Center. Service/Database infrastructure. https://doi.org/10.26302/SSHADE
# ////
#---------
# energy(ev)	fluorescence_emission(au)
10229.500231	0.03881
10234.700232	0.03822
10239.900232	0.03758
10245.000232	0.03730
10250.000232	0.03685
10254.900232	0.03601
10260.000232	0.03573
10265.000232	0.03524
10270.000232	0.03487
10275.000232	0.03416
10280.000233	0.03384
10285.000233	0.03363
10290.000233	0.03303
10295.000233	0.03276
10300.100233	0.03264
10305.000233	0.03232
10310.000233	0.03204
10315.000233	0.03220
10320.100233	0.03214
10325.000234	0.03204
10330.000234	0.03234
10335.000234	0.03271
10340.000234	0.03347
10345.000234	0.03407
10350.000234	0.03563
10355.000234	0.03797
10360.000234	0.04239
10360.900234	0.04375
10362.000234	0.04533
10363.000234	0.04698
10364.000234	0.04916
10364.900234	0.05143
10365.900234	0.05450
10367.000235	0.05815
10368.000235	0.06254
10369.000235	0.06821
10370.000235	0.07580
10370.900235	0.08500
10371.900235	0.09992
10373.000235	0.12499
10373.900235	0.16359
10375.000235	0.23602
10376.000235	0.34778
10377.000235	0.60602
10378.000235	1.05110
10379.000235	1.57430
10380.000235	1.85357
10381.000235	1.80471
10381.900235	1.63969
10383.000235	1.44216
10384.000235	1.26417
10385.000235	1.10407
10385.900235	0.95925
10387.000235	0.83368
10388.000235	0.73530
10389.000235	0.68014
10390.000235	0.65286
10391.000235	0.64448
10392.000235	0.64508
10393.000235	0.64970
10393.900235	0.65485
10395.000235	0.65887
10396.000235	0.65932
10396.900235	0.65556
10397.900235	0.64871
10398.900235	0.63921
10400.000235	0.62743
10401.000235	0.61480
10402.000235	0.60258
10403.000235	0.58999
10404.000235	0.57599
10405.000235	0.56329
10406.000235	0.55123
10407.000235	0.53988
10408.000235	0.52988
10408.900235	0.52131
10410.000235	0.51317
10411.000236	0.50976
10412.000236	0.51111
10413.000236	0.51728
10414.000236	0.52910
10415.000236	0.54746
10415.900236	0.56769
10417.000236	0.59445
10418.000236	0.62205
10418.900236	0.64907
10421.000236	0.70519
10421.800236	0.72425
10424.800236	0.76472
10426.200236	0.77234
10427.700236	0.77617
10429.300236	0.77887
10430.800236	0.78008
10432.300236	0.78181
10433.900236	0.78264
10435.500236	0.78401
10437.100236	0.78434
10438.700236	0.78341
10440.400236	0.78087
10442.100236	0.77654
10443.800236	0.76997
10445.600236	0.76222
10447.200236	0.75411
10449.000236	0.74443
10450.700236	0.73435
10452.600236	0.72348
10454.300236	0.71396
10456.100237	0.70344
10458.000237	0.69360
10459.900237	0.68464
10461.700237	0.67594
10463.700237	0.66840
10465.600237	0.66355
10467.500237	0.65861
10469.500237	0.65676
10471.400237	0.65587
10473.500237	0.65582
10475.500237	0.65789
10477.400237	0.66108
10479.500237	0.66415
10481.600237	0.66883
10483.700237	0.67337
10485.900237	0.67816
10488.000237	0.68356
10490.000237	0.68739
10492.200237	0.69118
10494.400237	0.69521
10496.700237	0.69957
10498.900237	0.70283
10501.100238	0.70663
10503.400238	0.71005
10505.600238	0.71411
10508.000238	0.71870
10510.300238	0.72208
10512.600238	0.72440
10515.000238	0.72593
10517.300238	0.72540
10519.800238	0.72425
10522.100238	0.72278
10524.500238	0.72170
10527.000238	0.72006
10529.500238	0.71813
10532.000238	0.71659
10534.500238	0.71340
10537.000238	0.71039
10539.500238	0.70813
10542.100238	0.70553
10544.700239	0.70234
10547.200239	0.69987
10549.900239	0.69823
10552.500239	0.69534
10555.200239	0.69426
10557.900239	0.69432
10560.600239	0.69322
10563.200239	0.69236
10566.000239	0.69111
10568.700239	0.69046
10571.500239	0.69024
10574.300239	0.69066
10577.100239	0.69133
10579.900239	0.69126
10582.800239	0.69203
10585.600239	0.69305
10588.500240	0.69330
10591.400240	0.69459
10594.300240	0.69578
10597.200240	0.69644
10600.300240	0.69745
10603.200240	0.69816
10606.200240	0.69918
10609.200240	0.69990
10612.300240	0.70086
10615.200240	0.70239
10618.400240	0.70280
10621.400240	0.70334
10624.600240	0.70371
10627.600240	0.70376
10630.800240	0.70361
10634.000241	0.70316
10637.200241	0.70244
10640.400241	0.70237
10643.600241	0.70098
10646.900241	0.70022
10650.100241	0.69849
10653.400241	0.69740
10656.700241	0.69613
10660.000241	0.69505
10663.400241	0.69340
10666.700241	0.69253
10670.000241	0.69140
10673.400241	0.68996
10676.900242	0.68954
10680.200242	0.68873
10683.800242	0.68767
10687.200242	0.68711
10690.700242	0.68732
10694.200242	0.68699
10697.700242	0.68673
10701.300242	0.68708
10704.800242	0.68700
10708.400242	0.68686
10712.100242	0.68670
10715.600242	0.68747
10719.300242	0.68715
10722.900243	0.68754
10726.600243	0.68741
10730.300243	0.68770
10734.000243	0.68771
10737.700243	0.68814
10741.500243	0.68805
10745.300243	0.68827
10749.100243	0.68798
10752.900243	0.68789
10756.700243	0.68795
10760.600243	0.68771
10764.400244	0.68704
10768.200244	0.68710
10772.100244	0.68664
10776.100244	0.68618
10780.000244	0.68511
10784.000244	0.68534
10788.000244	0.68449
10791.900244	0.68433
10796.000244	0.68282
10800.000244	0.68272
10804.000244	0.68242
10808.100244	0.68169
10812.200245	0.68099
10816.300245	0.68034
10820.500245	0.67918
10824.600245	0.67896
10828.700245	0.67861
10833.000245	0.67851
10837.100245	0.67756
10841.300245	0.67729
10845.600245	0.67661
10849.900245	0.67689
10854.100246	0.67666
10858.500246	0.67618
10862.800246	0.67585
10867.100246	0.67557
10871.400246	0.67506
10875.800246	0.67513
10880.200246	0.67544
10884.600246	0.67585
10889.100246	0.67522
10893.500246	0.67527
10897.900247	0.67533
10902.400247	0.67456
10906.900247	0.67433
10911.500247	0.67431
10916.000247	0.67369
10920.600247	0.67389
10925.300247	0.67337
10929.700247	0.67326
10934.400247	0.67274
10939.000247	0.67188
10943.700248	0.67163
10948.300248	0.67063
10953.000248	0.67033
10957.700248	0.67011
10962.500248	0.66899
10967.200248	0.66887
10972.000248	0.66823
10976.700248	0.66800
10981.600248	0.66764
10986.400249	0.66642
10991.300249	0.66651
10996.100249	0.66614
11001.000249	0.66592
11005.900249	0.66541
11010.800249	0.66517
11015.700249	0.66551
11020.600249	0.66482
11025.800249	0.66453
11030.800250	0.66451
11035.700250	0.66419
11040.700250	0.66416
11045.800250	0.66378
11050.800250	0.66368
11055.900250	0.66389
11061.100250	0.66381
11066.200250	0.66327
11071.400250	0.66283
11076.500251	0.66329
11081.600251	0.66295
11086.900251	0.66292
11092.000251	0.66272
11097.400251	0.66280
11102.600251	0.66224
11107.900251	0.66390
11113.200251	0.66458
11118.500252	0.66444
11123.800252	0.66319
11129.100252	0.66291
11134.600252	0.66285
11140.000252	0.66228
11145.400252	0.66245
11150.800252	0.66220
11156.300252	0.66213
11161.700252	0.66180
11167.200253	0.66090
11172.700253	0.66088
11178.300253	0.66047
11183.800253	0.66026
11189.300253	0.65999
11194.900253	0.65954
11200.500253	0.65974
11206.100253	0.65953
11211.700254	0.65907
11217.500254	0.65862
11223.100254	0.65841
11228.800254	0.65826
11234.400254	0.65760
11240.200254	0.65787
11246.000254	0.65787
11251.700255	0.65728
11257.500255	0.65752
11263.400255	0.65640
11269.200255	0.65622
11275.000255	0.65563
11280.900255	0.65579
11286.800255	0.65603
11292.700255	0.65580
11298.500256	0.65561
11304.500256	0.65542
11310.400256	0.65508
11316.400256	0.65472
11322.500256	0.65475
11328.500256	0.65370
