# XDI/1.0
# Column.1: energy(ev)
# Column.2: transmission(au)
# Element.symbol: Mo
# Element.edge: K
# Mono.name: Si 2 2 0
# Mono.d_spacing: 1.92
# Beamline.name: FAME
# Sample.name: Pellet of Na2MoO4 mixed with BN
# Sample.temperature: 25.0 +/- 5.0 Â°C
# Sample.pressure: 1.0 atm
# Citation.doi:  https://doi.org/10.26302/SSHADE/EXPERIMENT_IK_20210602_001
# Citation.comments: Kieffer, Isabelle; Proux, Olivier; Hazemann, Jean-Louis (2021): Mo K edge XAS transmission of Na2MoO4 reference for energy resolution optimisation. SSHADE/FAME (OSUG Data Center). Dataset/Spectral Data. https://doi.org/10.26302/SSHADE/EXPERIMENT_IK_20210602_001Schmitt, Bernard; Bollard, Philippe; Albert, Damien; Garenne, Alexandre; Bonal, Lydie; and the SSHADE partner's consortium (2018). SSHADE: 'Solid Spectroscopy Hosting Architecture of Databases and Expertise'. OSUG Data Center. Service/Database infrastructure. https://doi.org/10.26302/SSHADE
# ////
#---------
# energy(ev)	transmission(au)
19788.000000	-0.80724
19796.400000	-0.80849
19801.900000	-0.80771
19806.900000	-0.80983
19812.000000	-0.80914
19817.100000	-0.80944
19822.000000	-0.81014
19827.000000	-0.81122
19832.200000	-0.81244
19837.200000	-0.81153
19842.300000	-0.81320
19847.100000	-0.81255
19852.300000	-0.81334
19857.100000	-0.81391
19862.200000	-0.81310
19867.300000	-0.81373
19872.300000	-0.81441
19877.300000	-0.81409
19882.400000	-0.81440
19887.400000	-0.81389
19892.400000	-0.81479
19897.400000	-0.81428
19902.200000	-0.81461
19907.400000	-0.81392
19912.500000	-0.81522
19917.500000	-0.81406
19922.500000	-0.81367
19927.400000	-0.81285
19932.400000	-0.81157
19937.500000	-0.80949
19942.300000	-0.80796
19947.600000	-0.80677
19952.400000	-0.80423
19957.700000	-0.80139
19962.500000	-0.79760
19967.500000	-0.79329
19968.700000	-0.79208
19969.500000	-0.79187
19970.500000	-0.79073
19971.500000	-0.78833
19972.500000	-0.78797
19973.500000	-0.78669
19974.700000	-0.78468
19975.500000	-0.78272
19976.500000	-0.78111
19977.600000	-0.77971
19978.600000	-0.77682
19979.500000	-0.77594
19980.600000	-0.77346
19981.500000	-0.77038
19982.500000	-0.76819
19983.500000	-0.76557
19984.500000	-0.76130
19985.500000	-0.75786
19986.600000	-0.75388
19987.600000	-0.74795
19988.600000	-0.74504
19989.600000	-0.73915
19990.600000	-0.73383
19991.600000	-0.72763
19992.500000	-0.71978
19993.600000	-0.71050
19994.600000	-0.69986
19995.600000	-0.68830
19996.600000	-0.67456
19997.600000	-0.65785
19998.600000	-0.63765
19999.600000	-0.61225
20000.500000	-0.58026
20001.700000	-0.53377
20002.500000	-0.48249
20003.500000	-0.38533
20004.500000	-0.24580
20005.600000	-0.03063
20006.500000	0.27937
20007.600000	0.72206
20008.600000	1.07474
20009.600000	1.04517
20010.600000	0.75023
20011.500000	0.46465
20012.600000	0.29806
20013.600000	0.24303
20014.500000	0.25325
20015.500000	0.29936
20016.600000	0.37381
20017.600000	0.47679
20018.600000	0.61696
20019.600000	0.80072
20020.600000	1.03081
20021.600000	1.29684
20022.500000	1.54817
20023.500000	1.76792
20024.500000	1.93218
20025.500000	2.03119
20026.500000	2.08510
20027.500000	2.10232
20028.700000	2.09754
20029.400000	2.09185
20030.500000	2.08420
20031.600000	2.09008
20032.600000	2.11767
20033.600000	2.17248
20034.600000	2.25664
20035.600000	2.35089
20036.600000	2.44809
20037.600000	2.54300
20039.600000	2.68518
20041.700000	2.76089
20043.600000	2.76895
20045.500000	2.75393
20047.500000	2.73672
20049.500000	2.71960
20051.600000	2.70139
20053.600000	2.66993
20055.700000	2.61354
20057.400000	2.53671
20059.500000	2.44005
20061.600000	2.36623
20063.600000	2.30788
20065.500000	2.26438
20067.500000	2.23469
20069.500000	2.19538
20071.500000	2.14738
20073.600000	2.09844
20075.600000	2.05188
20077.600000	2.01449
20079.500000	1.98518
20081.600000	1.96304
20083.800000	1.95182
20085.600000	1.94554
20087.400000	1.94698
20089.600000	1.95128
20091.600000	1.96136
20093.600000	1.97694
20095.600000	1.99713
20097.600000	2.01503
20099.500000	2.04010
20101.500000	2.06463
20103.600000	2.08740
20105.600000	2.10661
20107.600000	2.12168
20109.500000	2.14269
20111.700000	2.15897
20113.400000	2.17265
20115.500000	2.18708
20117.600000	2.20388
20119.600000	2.21395
20121.500000	2.22229
20123.500000	2.23091
20125.700000	2.23532
20127.700000	2.24062
20129.600000	2.24618
20131.500000	2.24806
20133.500000	2.25029
20135.500000	2.25265
20137.600000	2.25112
20139.700000	2.24939
20141.500000	2.24581
20143.500000	2.23894
20145.500000	2.23097
20147.600000	2.22127
20149.600000	2.20800
20151.500000	2.19793
20153.500000	2.18210
20155.500000	2.16974
20157.500000	2.15410
20159.600000	2.14180
20161.600000	2.12879
20163.600000	2.11440
20165.600000	2.10077
20167.500000	2.08927
20169.600000	2.07412
20171.700000	2.06433
20173.600000	2.05771
20175.500000	2.04786
20177.500000	2.04061
20179.500000	2.03570
20181.600000	2.02940
20183.600000	2.02423
20185.600000	2.02091
20187.500000	2.01632
20189.400000	2.01234
20191.600000	2.00920
20193.900000	2.00942
20195.300000	2.00924
20197.500000	2.00815
20199.400000	2.00564
20201.600000	2.00606
20203.600000	2.00493
20205.600000	2.00409
20207.600000	2.00582
20209.500000	2.00603
20211.600000	2.00530
20213.700000	2.00821
20215.600000	2.00873
20217.600000	2.00799
20219.600000	2.00958
20221.600000	2.01080
20223.300000	2.01404
20225.700000	2.01676
20227.700000	2.01750
20229.500000	2.02088
20231.500000	2.02324
20233.600000	2.02536
20235.600000	2.02766
20237.600000	2.03204
20239.500000	2.03599
20241.500000	2.03870
20243.500000	2.03904
20245.500000	2.04230
20247.600000	2.04334
20249.700000	2.04295
20251.400000	2.04448
20253.500000	2.04258
20255.600000	2.04429
20257.700000	2.04580
20259.600000	2.04193
20261.500000	2.04432
20263.500000	2.04241
20265.500000	2.03981
20267.500000	2.03891
20269.600000	2.03564
20271.600000	2.03136
20273.600000	2.03037
20275.500000	2.02641
20277.700000	2.02152
20279.500000	2.02015
20281.500000	2.01478
20283.500000	2.01719
20285.400000	2.01114
20287.600000	2.00673
20289.500000	2.00614
20291.700000	2.00249
20293.600000	1.99971
20295.600000	1.99692
20297.500000	1.99151
20299.600000	1.99010
20301.700000	1.98997
20303.600000	1.98276
20305.500000	1.97893
20307.600000	1.97766
20309.400000	1.97321
20311.500000	1.97066
20313.600000	1.97026
20315.600000	1.96543
20317.500000	1.96367
20319.500000	1.95993
20321.500000	1.95554
20323.600000	1.95484
20325.600000	1.95214
20327.500000	1.95107
20329.500000	1.94767
20331.500000	1.94720
20333.500000	1.94480
20335.700000	1.94155
20337.500000	1.94365
20339.500000	1.94028
20341.500000	1.93521
20343.600000	1.93835
20345.700000	1.93920
20347.600000	1.93678
20349.500000	1.93711
20351.500000	1.93678
20353.500000	1.93610
20355.500000	1.93308
20357.600000	1.93650
20359.600000	1.93571
20361.500000	1.93526
20363.600000	1.93987
20365.400000	1.93513
20367.600000	1.93615
20369.500000	1.93710
20371.600000	1.93930
20373.500000	1.93600
20375.400000	1.93506
20377.500000	1.93783
20379.600000	1.93896
20381.500000	1.93602
20383.700000	1.93663
20385.600000	1.93702
20387.600000	1.94012
20389.600000	1.93722
20391.700000	1.94220
20393.500000	1.93620
20395.500000	1.93876
20397.500000	1.93930
20399.500000	1.93845
20401.600000	1.93883
20403.600000	1.93609
20405.600000	1.93860
20407.500000	1.93590
20409.500000	1.93182
20411.600000	1.93789
20413.600000	1.93424
20415.500000	1.93311
20417.500000	1.93456
20419.500000	1.92981
20421.600000	1.92913
20423.500000	1.92882
20425.600000	1.92824
20427.600000	1.92609
20429.600000	1.92501
20431.600000	1.92258
20433.700000	1.92169
20435.700000	1.91890
20437.600000	1.91830
20439.500000	1.91462
20441.500000	1.91511
20443.500000	1.91278
20445.600000	1.91253
20447.600000	1.90769
20449.700000	1.90542
20451.400000	1.90293
20453.500000	1.90356
20455.600000	1.90179
20457.600000	1.90105
20459.400000	1.89677
20461.600000	1.89626
20463.500000	1.89400
20465.500000	1.89147
20467.500000	1.88808
20469.600000	1.88870
20471.600000	1.88438
20473.600000	1.88534
20475.500000	1.88144
20477.600000	1.88006
20479.800000	1.87913
20481.400000	1.87714
20483.600000	1.87783
20485.500000	1.87491
20487.500000	1.87306
20489.600000	1.87042
20491.600000	1.87251
20493.500000	1.87152
20495.500000	1.86834
20497.500000	1.86685
20499.500000	1.86396
20501.600000	1.86325
20503.600000	1.86210
20505.500000	1.86204
20507.600000	1.86136
20509.400000	1.85845
20511.500000	1.85855
20513.600000	1.85690
20515.600000	1.85772
20517.600000	1.85450
20519.600000	1.85473
20521.600000	1.85458
20523.600000	1.85364
20525.500000	1.85244
20527.600000	1.85006
20529.500000	1.85084
20531.500000	1.84765
20533.500000	1.85205
20535.600000	1.84914
20537.700000	1.84972
20539.500000	1.84625
20541.500000	1.84739
20543.500000	1.84532
20545.600000	1.84617
20547.600000	1.84502
20549.600000	1.84209
20551.500000	1.84510
20553.500000	1.84348
20555.500000	1.84190
20557.600000	1.84113
20559.600000	1.84065
20561.600000	1.83985
20563.600000	1.83947
20565.600000	1.84217
20567.700000	1.83893
20569.600000	1.83834
20571.600000	1.83578
20573.500000	1.83803
20575.500000	1.83634
20577.500000	1.83683
20579.500000	1.83648
20581.600000	1.83410
20583.600000	1.83312
20585.500000	1.83429
20587.500000	1.83180
20589.500000	1.83180
20591.600000	1.83055
20593.600000	1.82988
20595.500000	1.83015
20597.600000	1.82750
20599.400000	1.82977
20601.500000	1.82770
20603.600000	1.82677
20605.600000	1.82396
20607.600000	1.82362
20609.500000	1.82376
20611.500000	1.82102
20613.600000	1.82159
20615.600000	1.81839
20617.600000	1.81494
20619.400000	1.81414
20621.600000	1.81639
20623.500000	1.81381
20625.700000	1.81362
20627.500000	1.81067
20629.500000	1.80983
20631.500000	1.80834
20633.500000	1.80606
20635.500000	1.80711
20637.600000	1.80406
20639.600000	1.80105
20641.500000	1.80038
20643.500000	1.80181
20645.500000	1.79751
20647.500000	1.79567
20649.700000	1.79358
20651.600000	1.79371
20653.600000	1.79224
20655.600000	1.79153
20657.500000	1.79098
20659.600000	1.78889
20661.600000	1.78972
20663.500000	1.78591
20665.500000	1.78654
20667.500000	1.78376
20669.500000	1.77952
20671.600000	1.78126
20673.600000	1.77849
20675.600000	1.77809
20677.500000	1.77816
20679.500000	1.77377
20681.600000	1.77450
20683.600000	1.77278
20685.700000	1.77088
20687.400000	1.76994
20689.400000	1.76881
20691.500000	1.76543
20693.600000	1.76805
20695.600000	1.76451
20697.600000	1.76426
20699.500000	1.76230
20701.600000	1.76313
20703.600000	1.76202
20705.700000	1.76030
20707.600000	1.75686
20709.500000	1.75708
20711.500000	1.75571
20713.500000	1.75512
20715.600000	1.75470
20717.500000	1.75264
20719.500000	1.75312
20721.600000	1.75194
20723.500000	1.74947
20725.500000	1.74840
20727.600000	1.74820
20729.600000	1.74637
20731.500000	1.74725
20733.500000	1.74698
20735.500000	1.74517
20737.500000	1.74334
20739.600000	1.74294
20741.600000	1.74331
20743.600000	1.74210
20745.700000	1.73964
20747.500000	1.74135
20749.400000	1.74080
20751.800000	1.73870
20753.600000	1.73775
20755.500000	1.73656
20757.500000	1.73654
20759.500000	1.73310
20761.500000	1.73277
20763.600000	1.73568
20765.500000	1.73032
20767.600000	1.73327
20769.600000	1.73150
20771.500000	1.72964
20773.600000	1.72774
20775.600000	1.72858
20777.700000	1.72690
20779.400000	1.72605
20781.500000	1.72531
20783.500000	1.72723
20785.600000	1.72449
20787.600000	1.72530
20789.600000	1.72352
20791.600000	1.72080
20793.500000	1.72015
20795.600000	1.72109
20797.600000	1.71848
20799.600000	1.72058
20801.600000	1.71948
20803.500000	1.71563
20805.500000	1.71509
20807.600000	1.71470
20809.500000	1.71268
20811.600000	1.71233
20813.600000	1.71185
20815.500000	1.71034
20817.500000	1.70844
20819.600000	1.70906
20821.600000	1.70623
20823.600000	1.70706
20825.500000	1.70560
20827.500000	1.70546
20829.500000	1.70278
20831.500000	1.70381
20833.600000	1.70188
20835.600000	1.69773
20837.700000	1.69829
20839.400000	1.69733
20841.600000	1.69728
20843.700000	1.69478
20845.600000	1.69681
20847.600000	1.69380
20849.500000	1.69290
20851.500000	1.69303
20853.500000	1.68986
20856.000000	1.68804
20857.200000	1.69003
20859.500000	1.68743
20861.600000	1.68390
20863.600000	1.68423
20865.500000	1.68305
20867.700000	1.68283
20869.500000	1.68202
20871.500000	1.68155
20873.500000	1.68167
20875.500000	1.67932
20877.500000	1.67683
20879.600000	1.67540
20881.600000	1.67415
20883.600000	1.67141
20885.600000	1.67084
