# XDI/1.0
# Column.1: energy(ev)
# Column.2: transmission(au)
# Element.symbol: Ti
# Element.edge: K
# Mono.name: Si 2 2 0
# Mono.d_spacing: 1.92
# Beamline.name: FAME
# Sample.name: Ti metallic foil
# Sample.temperature: 293.0 +/- 2.0 K
# Sample.pressure: None
# Citation.doi:  https://doi.org/10.26302/SSHADE/EXPERIMENT_DT_20180117_006
# Citation.comments: Proux, Olivier (2004): Ti K edge XAS transmission of Ti metallic foil reference at ambient conditions. SSHADE/FAME (OSUG Data Center). Dataset/Spectral Data. https://doi.org/10.26302/SSHADE/EXPERIMENT_DT_20180117_006Schmitt, Bernard; Bollard, Philippe; Albert, Damien; Garenne, Alexandre; Bonal, Lydie; and the SSHADE partner's consortium (2018). SSHADE: 'Solid Spectroscopy Hosting Architecture of Databases and Expertise'. OSUG Data Center. Service/Database infrastructure. https://doi.org/10.26302/SSHADE
# ////
#---------
# energy(ev)	transmission(au)
4853.700110	0.96337
4856.720110	0.96249
4859.740110	0.96086
4862.750110	0.96081
4865.730110	0.95881
4868.740110	0.95850
4871.730110	0.95641
4874.720110	0.95533
4877.720110	0.95471
4880.710110	0.95485
4883.710110	0.95265
4886.710111	0.95180
4889.730111	0.95009
4892.720111	0.94989
4895.730111	0.95018
4898.730111	0.94857
4901.750111	0.94716
4904.730111	0.94675
4907.740111	0.94590
4910.740111	0.94677
4913.740111	0.94388
4916.720111	0.94233
4919.750111	0.94212
4922.710111	0.94154
4925.730111	0.94023
4928.720111	0.93937
4931.730112	0.93877
4934.740112	0.93739
4937.730112	0.93579
4940.730112	0.93671
4943.740112	0.93573
4946.720112	0.93507
4949.740112	0.93626
4952.730112	0.93765
4955.730112	0.94018
4958.740112	0.94621
4958.970112	0.94646
4959.230112	0.94600
4959.480112	0.94612
4959.740112	0.94660
4959.990112	0.94789
4960.230112	0.94883
4960.480112	0.94942
4960.740112	0.95083
4960.980112	0.95234
4961.220112	0.95403
4961.480112	0.95587
4961.730112	0.95766
4961.980112	0.95839
4962.230112	0.96062
4962.480112	0.96222
4962.730112	0.96359
4962.980112	0.96608
4963.230112	0.97065
4963.480112	0.97572
4963.740112	0.98289
4963.990112	0.99064
4964.240112	0.99913
4964.480112	1.01290
4964.730112	1.03337
4964.970112	1.06218
4965.230112	1.10974
4965.480112	1.18727
4965.740112	1.31348
4965.980112	1.47147
4966.230112	1.62425
4966.480112	1.71492
4966.730112	1.72923
4966.980112	1.68899
4967.240112	1.62043
4967.480112	1.55008
4967.730112	1.49795
4967.980112	1.46683
4968.230112	1.45566
4968.480112	1.46024
4968.730112	1.47683
4968.980112	1.50266
4969.230112	1.53424
4969.480112	1.57004
4969.730112	1.60382
4969.980112	1.63523
4970.230112	1.66176
4970.480112	1.68300
4970.730112	1.70059
4970.980112	1.71282
4971.240112	1.72287
4971.480112	1.72963
4971.730112	1.73718
4971.980112	1.74711
4972.230112	1.76286
4972.470112	1.78539
4972.730112	1.81360
4972.980112	1.84799
4973.230113	1.88567
4973.480113	1.92571
4973.730113	1.96708
4973.990113	2.00768
4974.230113	2.04819
4974.480113	2.08878
4974.730113	2.12778
4974.990113	2.16559
4975.230113	2.20174
4975.480113	2.23756
4975.730113	2.27322
4975.990113	2.30899
4976.230113	2.34449
4976.480113	2.38040
4976.730113	2.41670
4976.990113	2.45304
4977.230113	2.48543
4977.480113	2.51932
4977.730113	2.54739
4977.980113	2.57374
4978.230113	2.59853
4978.480113	2.61988
4978.730113	2.64149
4978.980113	2.66162
4979.230113	2.67717
4979.480113	2.68951
4979.730113	2.70443
4979.980113	2.71572
4980.230113	2.72493
4980.480113	2.73586
4980.730113	2.74091
4980.990113	2.74941
4981.240113	2.75736
4981.480113	2.76391
4981.730113	2.76969
4981.990113	2.77502
4982.230113	2.78278
4982.480113	2.78913
4982.730113	2.79502
4982.990113	2.80239
4983.230113	2.80989
4983.480113	2.81683
4983.730113	2.82120
4983.980113	2.82433
4984.230113	2.82933
4984.480113	2.83078
4984.730113	2.83153
4984.980113	2.82975
4985.230113	2.82739
4985.480113	2.82291
4985.730113	2.81258
4985.980113	2.80631
4986.230113	2.79800
4986.480113	2.78911
4986.730113	2.77964
4986.980113	2.76967
4987.240113	2.76231
4987.480113	2.75621
4987.730113	2.74857
4987.980113	2.74430
4988.230113	2.73858
4988.490113	2.73707
4988.730113	2.73524
4988.980113	2.73402
4989.240113	2.73419
4989.480113	2.73410
4989.730113	2.73185
4989.980113	2.73217
4990.240113	2.73227
4990.480113	2.72986
4990.730113	2.72921
4990.980113	2.72966
4991.240113	2.72932
4991.480113	2.72754
4991.730113	2.72605
4991.980113	2.72513
4992.240113	2.72226
4992.480113	2.72026
4992.740113	2.71769
4992.980113	2.71545
4993.240113	2.71263
4993.490113	2.71289
4993.730113	2.71151
4993.980113	2.71089
4994.230113	2.71198
4994.490113	2.71280
4994.730113	2.71522
4994.980113	2.71949
4995.230113	2.72246
4995.480113	2.72711
4995.730113	2.73297
4995.980113	2.74050
4996.230113	2.74795
4996.480113	2.75739
4996.730113	2.76629
4996.980113	2.77802
4997.230113	2.78641
4997.480113	2.79869
4997.740113	2.81086
4997.980113	2.82498
4998.230113	2.83763
4998.490113	2.84913
4998.740113	2.86108
4998.980113	2.86972
4999.230113	2.87843
4999.480113	2.88708
4999.730113	2.89490
4999.990113	2.90169
5000.230113	2.90572
5000.490113	2.91002
5000.730113	2.91295
5001.880113	2.91528
5004.210113	2.90441
5005.420113	2.89544
5006.640113	2.87115
5007.870113	2.83177
5009.130113	2.78506
5010.400113	2.74197
5011.700113	2.71662
5013.000113	2.70172
5014.330113	2.69076
5015.680113	2.67803
5017.060113	2.66596
5018.450114	2.65087
5019.840114	2.63854
5021.260114	2.62742
5022.710114	2.61798
5024.170114	2.61353
5025.670114	2.61737
5027.140114	2.62533
5028.690114	2.63704
5030.220114	2.65354
5031.760114	2.68445
5033.350114	2.72466
5034.940114	2.76888
5036.570114	2.80875
5038.170114	2.84034
5039.830114	2.85639
5041.530114	2.85863
5043.200114	2.85071
5044.910114	2.83231
5046.630114	2.80791
5048.390114	2.77729
5050.160114	2.73858
5051.930114	2.69977
5053.740114	2.66143
5055.560114	2.63327
5057.400114	2.61854
5059.270114	2.61563
5061.150114	2.61747
5063.040115	2.61288
5064.950115	2.60344
5066.890115	2.59218
5068.850115	2.58330
5070.790115	2.57573
5072.820115	2.57425
5074.800115	2.57738
5076.840115	2.59372
5078.900115	2.61379
5080.950115	2.64504
5083.030115	2.67890
5085.140115	2.71825
5087.260115	2.75428
5089.380115	2.78370
5091.570115	2.79858
5093.740115	2.79065
5095.940115	2.76242
5098.180115	2.71705
5100.390115	2.66619
5102.670115	2.61749
5104.940115	2.57668
5107.210116	2.56177
5109.550116	2.55904
5111.880116	2.56153
5114.210116	2.55985
5116.610116	2.56147
5118.970116	2.56179
5121.380116	2.55914
5123.810116	2.55681
5126.230116	2.54970
5128.730116	2.54343
5131.210116	2.54122
5133.680116	2.54075
5136.210116	2.54662
5138.760116	2.55801
5141.320116	2.57355
5143.870116	2.58877
5146.490116	2.60631
5149.100116	2.61679
5151.700117	2.61851
5154.390117	2.61188
5157.040117	2.59412
5159.740117	2.57597
5162.450117	2.55852
5165.160117	2.54433
5167.940117	2.53526
5170.670117	2.52190
5173.470117	2.50417
5176.270117	2.48647
5179.090117	2.47384
5181.920117	2.47017
5184.790117	2.46448
5187.670117	2.46408
5190.560117	2.46170
5193.480117	2.46116
5196.420118	2.46310
5199.380118	2.46737
5202.350118	2.47013
5205.330118	2.47446
5208.350118	2.47846
5211.380118	2.48178
5214.430118	2.48186
5217.480118	2.48046
5220.580118	2.47473
5223.670118	2.46788
5226.800118	2.46492
5229.950118	2.46070
5233.100118	2.45689
5236.280118	2.44807
5239.480119	2.43983
5242.720119	2.42814
5245.930119	2.41853
5249.190119	2.40729
5252.450119	2.40035
5255.770119	2.39256
5259.050119	2.38582
5262.400119	2.37905
5265.740119	2.37675
5269.120119	2.37383
5272.490119	2.37492
5275.920119	2.37499
5279.340119	2.37497
5281.500119	2.37482
5286.240120	2.37500
5289.740120	2.37453
5293.250120	2.37229
5296.740120	2.36767
5300.300120	2.36188
5303.840120	2.35679
5307.400120	2.35238
5311.010120	2.34816
5314.600120	2.34428
5318.250120	2.33938
5321.920120	2.33423
5325.560120	2.32770
5329.270121	2.32220
5332.970121	2.31632
5336.710121	2.31000
5340.470121	2.30126
5344.220121	2.29281
5348.010121	2.28807
5351.810121	2.28167
5355.630121	2.27884
5359.450121	2.27529
5363.340121	2.27297
5367.180121	2.27193
5371.090122	2.27148
5375.000122	2.26946
5378.960122	2.26668
5382.890122	2.26169
5386.880122	2.25900
5390.870122	2.25264
5394.870122	2.24719
5398.900122	2.24251
5402.960122	2.23770
5407.030122	2.23400
5411.100122	2.22718
5415.200122	2.22220
5419.340123	2.21670
5423.470123	2.21113
5427.650123	2.20548
5431.800123	2.19975
5436.050123	2.19470
5440.230123	2.18952
5444.480123	2.18423
5448.720123	2.17994
5453.010123	2.17623
5457.320123	2.17277
5461.590124	2.16789
5465.960124	2.16321
5470.290124	2.15863
5474.650124	2.15387
5479.070124	2.15001
5483.420124	2.14612
5487.880124	2.14207
5492.310124	2.13580
5496.780124	2.13150
5501.270124	2.12734
5505.730125	2.12193
5510.280125	2.11635
5514.800125	2.11143
5519.380125	2.10647
5523.960125	2.10142
5528.540125	2.09635
5533.190125	2.09019
5537.800125	2.08520
5542.470125	2.07935
5547.130125	2.07394
5551.820126	2.06894
5556.530126	2.06414
5561.240126	2.05998
5566.000126	2.05476
5570.740126	2.04889
5575.520126	2.04301
5580.320126	2.03826
5585.160126	2.03278
5589.990126	2.02775
5594.880127	2.02275
5599.730127	2.01819
5604.670127	2.01266
5609.560127	2.00811
5614.500127	2.00297
5619.460127	1.99659
5624.410127	1.99179
5629.420127	1.98514
5634.410127	1.97874
5639.440128	1.97301
5644.500128	1.96812
5649.550128	1.96520
5654.640128	1.95959
5659.740128	1.95424
5664.870128	1.94799
5670.020128	1.94232
5675.180128	1.93634
5680.350128	1.93038
5685.570129	1.92551
5690.760129	1.91929
5696.000129	1.91268
5701.270129	1.90538
5706.530129	1.89962
5711.850129	1.89338
5717.140129	1.88820
5722.480129	1.88170
5727.830130	1.87439
5733.210130	1.86860
5738.590130	1.86208
5744.000130	1.85696
5749.430130	1.84967
5754.840130	1.84244
5760.320130	1.83718
5765.790130	1.83008
5771.310131	1.82413
5776.810131	1.81764
5782.330131	1.81032
5787.910131	1.80358
5793.470131	1.79752
5799.060131	1.79097
5804.700131	1.78466
5810.320131	1.77732
