# XDI/1.0
# Column.1: energy(ev)
# Column.2: fluorescence_emission(au)
# Element.symbol: Y
# Element.edge: K
# Mono.name: Si 2 2 0
# Mono.d_spacing: 1.92
# Beamline.name: FAME
# Sample.name: Yttrium(III) solution at hydrothermal conditions: Y 0.01m Cl 0.03m HCl 0.002m
# Sample.temperature: 400.0 +/- 5.0 °C
# Sample.pressure: 800.0 bar
# Citation.doi:  https://doi.org/10.26302/SSHADE/EXPERIMENT_DT_20170222_001
# Citation.comments: Louvel, Marion; Testemale, Denis; Etschmann, Barbara; Brugger, Joel (2017): Y K edge XAS fluorescence of yttrium(III) solution at hydrothermal conditions: 800 bar 30 to 450°C. SSHADE/FAME (OSUG Data Center). Dataset/Spectral Data. https://doi.org/10.26302/SSHADE/EXPERIMENT_DT_20170222_001Schmitt, Bernard; Bollard, Philippe; Albert, Damien; Garenne, Alexandre; Bonal, Lydie; and the SSHADE partner's consortium (2018). SSHADE: 'Solid Spectroscopy Hosting Architecture of Databases and Expertise'. OSUG Data Center. Service/Database infrastructure. https://doi.org/10.26302/SSHADE
# ////
#---------
# energy(ev)	fluorescence_emission(au)
16847.700381	0.01151
16853.900381	0.01137
16859.200381	0.01133
16864.400381	0.01111
16869.300382	0.01109
16874.400382	0.01100
16876.700382	0.01086
16878.100382	0.01090
16883.900382	0.01082
16893.700382	0.01076
16899.600382	0.01044
16904.700382	0.01048
16909.700383	0.01034
16914.700383	0.01023
16919.800383	0.01016
16924.700383	0.01007
16929.600383	0.01008
16934.700383	0.00990
16939.800383	0.00996
16944.800383	0.00982
16949.700383	0.00987
16954.800384	0.00978
16959.700384	0.00975
16964.700384	0.00959
16969.900384	0.00958
16974.800384	0.00960
16979.700384	0.00951
16984.900384	0.00955
16989.800384	0.00954
16994.800384	0.00957
17000.000385	0.00955
17001.200385	0.00965
17001.700385	0.00970
17002.300385	0.00975
17003.000385	0.00969
17003.600385	0.00959
17004.300385	0.00970
17005.000385	0.00971
17005.700385	0.00969
17006.400385	0.00965
17007.100385	0.00985
17007.800385	0.00982
17008.500385	0.00983
17009.200385	0.00997
17009.900385	0.00992
17010.600385	0.00989
17011.300385	0.00996
17012.000385	0.00998
17012.800385	0.01005
17013.400385	0.01002
17014.100385	0.01023
17014.800385	0.01015
17015.500385	0.01028
17016.200385	0.01021
17016.900385	0.01035
17017.600385	0.01046
17018.300385	0.01038
17019.000385	0.01059
17019.700385	0.01056
17020.400385	0.01066
17021.100385	0.01082
17021.800385	0.01090
17022.500385	0.01095
17023.200385	0.01118
17023.900385	0.01128
17024.600385	0.01147
17025.400385	0.01177
17026.000385	0.01187
17026.800385	0.01211
17027.500385	0.01239
17028.200385	0.01288
17028.900385	0.01325
17029.600385	0.01380
17030.200385	0.01440
17030.900385	0.01504
17031.600385	0.01607
17032.300385	0.01729
17033.100385	0.01856
17033.800385	0.02016
17034.400385	0.02157
17035.200385	0.02423
17035.800385	0.02630
17036.500385	0.02934
17037.200385	0.03324
17037.900385	0.03751
17038.600385	0.04256
17039.300385	0.04816
17040.000385	0.05445
17040.800385	0.06186
17041.400385	0.06718
17042.200386	0.07406
17042.900386	0.08047
17043.500386	0.08554
17044.200386	0.09068
17044.900386	0.09497
17045.600386	0.09803
17046.300386	0.10050
17047.000386	0.10207
17047.700386	0.10282
17048.400386	0.10280
17049.200386	0.10232
17049.800386	0.10133
17050.500386	0.09994
17051.200386	0.09795
17051.900386	0.09612
17052.600386	0.09437
17053.300386	0.09240
17054.000386	0.09085
17054.800386	0.08871
17055.500386	0.08780
17056.200386	0.08626
17056.900386	0.08489
17057.600386	0.08403
17058.300386	0.08275
17059.000386	0.08164
17059.700386	0.08045
17060.400386	0.07955
17061.000386	0.07914
17061.700386	0.07790
17062.400386	0.07726
17063.200386	0.07650
17063.800386	0.07612
17064.500386	0.07547
17065.300386	0.07488
17065.900386	0.07413
17066.600386	0.07405
17067.300386	0.07355
17068.000386	0.07325
17068.700386	0.07270
17069.400386	0.07246
17070.100386	0.07195
17070.800386	0.07167
17071.500386	0.07137
17072.300386	0.07104
17073.000386	0.07076
17073.700386	0.07041
17074.300386	0.07012
17075.000386	0.07024
17075.700386	0.06979
17076.400386	0.06979
17077.100386	0.06979
17077.800386	0.06960
17078.500386	0.06975
17079.200386	0.06981
17079.900386	0.07009
17080.600386	0.07054
17081.300386	0.07105
17082.000386	0.07153
17082.700386	0.07210
17083.400386	0.07253
17084.100386	0.07311
17084.800386	0.07366
17085.500386	0.07427
17086.200387	0.07466
17087.000387	0.07545
17087.700387	0.07556
17088.400387	0.07602
17089.100387	0.07653
17089.800387	0.07682
17090.400387	0.07749
17091.200387	0.07790
17091.800387	0.07833
17092.600387	0.07822
17093.200387	0.07841
17093.900387	0.07901
17094.600387	0.07881
17096.500387	0.07934
17097.700387	0.07924
17100.300387	0.07903
17102.200387	0.07836
17103.900387	0.07807
17105.400387	0.07748
17106.900387	0.07664
17108.500387	0.07597
17110.200387	0.07537
17111.800387	0.07439
17113.500387	0.07352
17115.100387	0.07297
17116.900387	0.07209
17118.700387	0.07135
17120.500387	0.07084
17122.200387	0.07052
17124.000387	0.07026
17125.800387	0.07009
17127.600387	0.06992
17129.400387	0.06973
17131.200388	0.06985
17133.200388	0.07001
17135.200388	0.07018
17137.100388	0.07029
17139.000388	0.07046
17140.900388	0.07076
17142.900388	0.07098
17144.900388	0.07122
17146.900388	0.07145
17149.000388	0.07151
17151.100388	0.07162
17153.200388	0.07181
17155.200388	0.07172
17157.300388	0.07175
17159.400388	0.07150
17161.500388	0.07144
17163.600388	0.07136
17166.000388	0.07101
17168.200388	0.07070
17170.400388	0.07031
17172.600388	0.07015
17174.800389	0.06984
17177.100389	0.06943
17179.400389	0.06923
17181.900389	0.06902
17184.200389	0.06861
17186.500389	0.06838
17188.900389	0.06798
17191.200389	0.06793
17193.600389	0.06782
17196.000389	0.06767
17198.600389	0.06756
17201.000389	0.06751
17203.400389	0.06745
17205.900389	0.06732
17208.500389	0.06738
17211.000389	0.06733
17213.800389	0.06731
17216.300389	0.06729
17218.800390	0.06748
17221.400390	0.06741
17224.000390	0.06754
17226.600390	0.06757
17229.500390	0.06759
17232.100390	0.06760
17234.800390	0.06753
17237.500390	0.06746
17240.200390	0.06725
17243.100390	0.06712
17246.000390	0.06703
17248.700390	0.06676
17251.500390	0.06671
17254.300390	0.06661
17257.100390	0.06636
17260.100390	0.06620
17263.100391	0.06620
17265.900391	0.06609
17268.900391	0.06590
17271.700391	0.06570
17274.800391	0.06572
17278.000391	0.06554
17280.900391	0.06538
17283.900391	0.06521
17286.800391	0.06518
17289.800391	0.06510
17293.200391	0.06500
17296.200391	0.06488
17299.300391	0.06452
17302.400391	0.06475
17305.600391	0.06451
17309.000392	0.06469
17312.100392	0.06449
17315.300392	0.06447
17318.400392	0.06435
17321.600392	0.06427
17325.100392	0.06420
17328.300392	0.06402
17331.700392	0.06404
17334.900392	0.06387
17338.300392	0.06373
17341.900392	0.06362
17345.200392	0.06351
17348.500392	0.06328
17351.800393	0.06330
17355.400393	0.06325
17359.000393	0.06312
17362.400393	0.06311
17365.800393	0.06297
17369.300393	0.06270
17373.100393	0.06265
17376.600393	0.06253
17380.100393	0.06244
17383.600393	0.06231
17387.200393	0.06240
17391.100393	0.06219
17394.600393	0.06213
17398.200394	0.06203
17401.900394	0.06186
17405.900394	0.06192
17409.500394	0.06162
17413.200394	0.06154
17416.800394	0.06151
17420.800394	0.06148
17424.600394	0.06136
17428.400394	0.06126
17432.100394	0.06120
17436.200394	0.06102
17440.100395	0.06081
17443.900395	0.06095
17447.700395	0.06089
17451.700395	0.06073
17455.800395	0.06044
17459.700395	0.06042
17463.600395	0.06035
17467.700395	0.06019
17471.900395	0.06009
17475.900395	0.06006
17479.800395	0.05991
17483.900396	0.05996
17488.200396	0.05976
17492.300396	0.05962
17496.300396	0.05954
17500.600396	0.05948
17504.800396	0.05928
17509.000396	0.05938
17513.000396	0.05909
17517.400396	0.05908
17521.700396	0.05906
17526.000396	0.05887
17530.200397	0.05876
17534.700397	0.05866
17539.000397	0.05851
17543.300397	0.05846
17547.500397	0.05835
17552.100397	0.05830
17556.400397	0.05810
17560.800397	0.05799
17565.300397	0.05786
17569.900397	0.05778
17574.400398	0.05768
17578.600398	0.05778
17583.300398	0.05749
17587.900398	0.05746
17592.400398	0.05733
17596.900398	0.05719
17601.800398	0.05716
17606.300398	0.05700
17610.800398	0.05695
17615.500398	0.05684
17620.200399	0.05675
17624.900399	0.05660
17629.500399	0.05652
17634.500399	0.05645
17639.100399	0.05641
17643.800399	0.05618
17648.600399	0.05605
17653.500399	0.05591
17658.300399	0.05591
17663.000400	0.05591
17668.200400	0.05583
17673.000400	0.05558
17677.700400	0.05549
17682.700400	0.05537
17687.700400	0.05537
17692.600400	0.05513
17697.600400	0.05508
17702.700400	0.05499
17707.700401	0.05495
17712.500401	0.05482
17717.800401	0.05459
17722.800401	0.05468
17727.700401	0.05451
17733.100401	0.05438
17738.200401	0.05436
17743.200401	0.05424
17748.300401	0.05414
17753.700402	0.05390
17758.700402	0.05380
17764.000402	0.05382
17769.400402	0.05366
17774.600402	0.05365
17779.600402	0.05345
