# XDI/1.0
# Column.1: energy(ev)
# Column.2: fluorescence_emission(au)
# Element.symbol: Y
# Element.edge: K
# Mono.name: Si 2 2 0
# Mono.d_spacing: 1.92
# Beamline.name: FAME
# Sample.name: Yttrium(III) solution at hydrothermal conditions: Y 0.92m Cl 2.76m
# Sample.temperature: 300.0 +/- 5.0 °C
# Sample.pressure: 800.0 bar
# Citation.doi:  https://doi.org/10.26302/SSHADE/EXPERIMENT_DT_20170222_001
# Citation.comments: Louvel, Marion; Testemale, Denis; Etschmann, Barbara; Brugger, Joel (2017): Y K edge XAS fluorescence of yttrium(III) solution at hydrothermal conditions: 800 bar 30 to 450°C. SSHADE/FAME (OSUG Data Center). Dataset/Spectral Data. https://doi.org/10.26302/SSHADE/EXPERIMENT_DT_20170222_001Schmitt, Bernard; Bollard, Philippe; Albert, Damien; Garenne, Alexandre; Bonal, Lydie; and the SSHADE partner's consortium (2018). SSHADE: 'Solid Spectroscopy Hosting Architecture of Databases and Expertise'. OSUG Data Center. Service/Database infrastructure. https://doi.org/10.26302/SSHADE
# ////
#---------
# energy(ev)	fluorescence_emission(au)
16849.000381	-0.62575
16854.200381	-0.62689
16859.300381	-0.62825
16864.400381	-0.62996
16869.400382	-0.63112
16874.500382	-0.63187
16879.400382	-0.63289
16881.800382	-0.63329
16883.200382	-0.63351
16888.700382	-0.63482
16898.700382	-0.63664
16904.700382	-0.63798
16909.800383	-0.63914
16914.700383	-0.64019
16919.800383	-0.64102
16924.700383	-0.64197
16929.600383	-0.64241
16934.600383	-0.64272
16939.800383	-0.64387
16944.800383	-0.64462
16949.700383	-0.64519
16954.800384	-0.64561
16959.700384	-0.64591
16964.700384	-0.64584
16969.900384	-0.64575
16974.900384	-0.64539
16979.700384	-0.64475
16984.800384	-0.64368
16989.800384	-0.64204
16994.800384	-0.63983
17000.000385	-0.63695
17001.100385	-0.63622
17001.600385	-0.63575
17002.300385	-0.63526
17003.000385	-0.63437
17003.600385	-0.63364
17004.300385	-0.63290
17005.000385	-0.63234
17005.700385	-0.63152
17006.400385	-0.63064
17007.100385	-0.62957
17007.800385	-0.62854
17008.500385	-0.62766
17009.200385	-0.62663
17009.900385	-0.62553
17010.600385	-0.62428
17011.300385	-0.62293
17012.000385	-0.62152
17012.700385	-0.62016
17013.400385	-0.61851
17014.100385	-0.61666
17014.800385	-0.61524
17015.500385	-0.61360
17016.200385	-0.61165
17016.900385	-0.60906
17017.600385	-0.60681
17018.300385	-0.60452
17019.000385	-0.60188
17019.700385	-0.59870
17020.400385	-0.59563
17021.100385	-0.59211
17021.800385	-0.58836
17022.500385	-0.58386
17023.200385	-0.57889
17023.900385	-0.57372
17024.600385	-0.56830
17025.400385	-0.56188
17026.000385	-0.55559
17026.800385	-0.54647
17027.500385	-0.53772
17028.100385	-0.52668
17028.900385	-0.51152
17029.500385	-0.49882
17030.200385	-0.47814
17030.900385	-0.45435
17031.600385	-0.42752
17032.400385	-0.38963
17033.000385	-0.35679
17033.700385	-0.30911
17034.400385	-0.25778
17035.100385	-0.20074
17035.800385	-0.12377
17036.500385	-0.03898
17037.200385	0.05973
17037.900385	0.17566
17038.600385	0.30555
17039.300385	0.45910
17040.000385	0.63809
17040.700385	0.82086
17041.400385	1.04337
17042.200386	1.31940
17042.900386	1.57611
17043.500386	1.84204
17044.200386	2.11011
17044.900386	2.37615
17045.600386	2.59756
17046.300386	2.84829
17047.000386	3.03239
17047.700386	3.15781
17048.400386	3.23218
17049.100386	3.24289
17049.800386	3.20965
17050.500386	3.14351
17051.200386	3.05439
17051.900386	2.96030
17052.600386	2.86396
17053.300386	2.76612
17054.000386	2.67557
17054.700386	2.59034
17055.400386	2.51513
17056.100386	2.45483
17056.900386	2.38237
17057.600386	2.32492
17058.300386	2.26857
17059.000386	2.21898
17059.600386	2.17328
17060.300386	2.12877
17061.000386	2.08347
17061.700386	2.04195
17062.400386	2.00844
17063.200386	1.97105
17063.800386	1.94192
17064.500386	1.91378
17065.200386	1.88783
17065.900386	1.86469
17066.600386	1.84279
17067.300386	1.82298
17068.000386	1.80433
17068.700386	1.78864
17069.400386	1.77404
17070.100386	1.76215
17070.800386	1.75087
17071.600386	1.74156
17072.300386	1.73440
17073.000386	1.72650
17073.600386	1.72070
17074.300386	1.71438
17075.000386	1.70900
17075.700386	1.70584
17076.400386	1.70533
17077.100386	1.70764
17077.800386	1.71294
17078.500386	1.72246
17079.200386	1.73575
17079.900386	1.75243
17080.600386	1.77204
17081.300386	1.79366
17082.000386	1.81763
17082.700386	1.84420
17083.400386	1.87230
17084.100386	1.90142
17084.800386	1.93219
17085.500386	1.95874
17086.200387	1.98716
17086.900387	2.01287
17087.700387	2.04271
17088.400387	2.06630
17089.100387	2.08878
17089.800387	2.11017
17090.400387	2.13054
17091.100387	2.14776
17091.800387	2.16498
17092.500387	2.17913
17093.200387	2.19197
17093.900387	2.20149
17094.600387	2.20881
17096.500387	2.21875
17097.700387	2.21740
17100.300387	2.19783
17102.200387	2.17375
17103.900387	2.14782
17105.400387	2.12337
17106.900387	2.09414
17108.500387	2.06203
17110.200387	2.02671
17111.800387	1.99175
17113.500387	1.95758
17115.100387	1.92636
17116.900387	1.89427
17118.700387	1.86875
17120.500387	1.84834
17122.200387	1.83357
17124.000387	1.82296
17125.800387	1.81715
17127.600387	1.81696
17129.400387	1.82044
17131.200388	1.82798
17133.200388	1.83891
17135.200388	1.85133
17137.100388	1.86409
17139.000388	1.87734
17140.900388	1.89102
17142.900388	1.90397
17144.900388	1.91575
17146.900388	1.92603
17149.000388	1.93453
17151.100388	1.94081
17153.200388	1.94512
17155.200388	1.94695
17157.300388	1.94720
17159.400388	1.94540
17161.500388	1.94104
17163.600388	1.93556
17166.000388	1.92801
17168.200388	1.91881
17170.300388	1.90917
17172.600388	1.89811
17174.800389	1.88730
17177.100389	1.87526
17179.400389	1.86414
17181.900389	1.85379
17184.200389	1.84472
17186.500389	1.83684
17188.900389	1.82959
17191.200389	1.82392
17193.600389	1.81827
17196.000389	1.81506
17198.600389	1.81174
17201.000389	1.81033
17203.500389	1.80926
17206.000389	1.80950
17208.500389	1.80984
17211.100389	1.81058
17213.700389	1.81214
17216.300389	1.81385
17218.900390	1.81638
17221.400390	1.81918
17224.000390	1.82238
17226.600390	1.82605
17229.500390	1.83083
17232.200390	1.83636
17234.800390	1.83955
17237.500390	1.83932
17240.200390	1.83613
17243.100390	1.83136
17246.000390	1.82702
17248.700390	1.82234
17251.500390	1.81816
17254.300390	1.81421
17257.100390	1.81027
17260.200390	1.80657
17263.100391	1.80278
17265.900391	1.79950
17268.900391	1.79555
17271.800391	1.79257
17274.800391	1.78923
17278.000391	1.78592
17280.900391	1.78351
17283.900391	1.78043
17286.900391	1.77684
17289.900391	1.77460
17293.200391	1.77108
17296.300391	1.76866
17299.300391	1.76679
17302.400391	1.76416
17305.600391	1.76279
17309.000392	1.76071
17312.100392	1.75933
17315.300392	1.75754
17318.400392	1.75675
17321.700392	1.75502
17325.200392	1.75326
17328.400392	1.75180
17331.700392	1.75009
17334.900392	1.74821
17338.400392	1.74572
17341.900392	1.74331
17345.100392	1.74124
17348.600392	1.73860
17351.800393	1.73601
17355.400393	1.73355
17359.000393	1.73032
17362.400393	1.72755
17365.800393	1.72428
17369.400393	1.72145
17373.100393	1.71869
17376.600393	1.71599
17380.200393	1.71324
17383.600393	1.71065
17387.300393	1.70857
17391.100393	1.70588
17394.600393	1.70361
17398.300394	1.70125
17401.900394	1.69892
17405.900394	1.69694
17409.500394	1.69502
17413.300394	1.69207
17416.900394	1.69022
17420.800394	1.68747
17424.600394	1.68519
17428.400394	1.68305
17432.200394	1.68025
17436.200394	1.67841
17440.100395	1.67626
17444.000395	1.67370
17447.700395	1.67218
17451.700395	1.66922
17455.800395	1.66696
17459.700395	1.66487
17463.600395	1.66235
17467.700395	1.65960
17471.900395	1.65728
17475.900395	1.65468
17479.800395	1.65253
17483.900396	1.64969
17488.200396	1.64726
17492.200396	1.64454
17496.300396	1.64183
17500.600396	1.63918
17504.900396	1.63627
17509.000396	1.63345
17513.100396	1.63029
17517.400396	1.62757
17521.700396	1.62436
17526.000396	1.62186
17530.100397	1.61869
17534.700397	1.61599
17539.000397	1.61299
17543.300397	1.60937
17547.500397	1.60698
17552.100397	1.60487
17556.500397	1.60200
17560.800397	1.59926
17565.300397	1.59654
17569.900397	1.59370
17574.400398	1.59071
17578.700398	1.58797
17583.300398	1.58502
17587.900398	1.58225
17592.400398	1.57952
17596.800398	1.57689
17601.700398	1.57376
17606.300398	1.57058
17610.800398	1.56791
17615.500398	1.56485
17620.200399	1.56202
17624.900399	1.55896
17629.400399	1.55552
17634.500399	1.55300
17639.100399	1.54940
17643.800399	1.54715
17648.600399	1.54407
17653.500399	1.54106
17658.300399	1.53763
17663.000400	1.53481
17668.100400	1.53140
17673.000400	1.52822
17677.600400	1.52538
17682.700400	1.52247
17687.700400	1.51908
17692.500400	1.51645
17697.500400	1.51310
17702.700400	1.50968
17707.600401	1.50705
17712.500401	1.50353
17717.700401	1.50052
17722.700401	1.49762
17727.700401	1.49454
17733.000401	1.49138
17738.200401	1.48831
17743.200401	1.48493
17748.300401	1.48266
17753.600402	1.47943
17758.700402	1.47612
17763.900402	1.47319
17769.400402	1.46989
17774.600402	1.46670
17779.600402	1.46354
