# XDI/1.0
# Column.1: energy(ev)
# Column.2: fluorescence_emission(au)
# Element.symbol: Y
# Element.edge: K
# Mono.name: Si 2 2 0
# Mono.d_spacing: 1.92
# Beamline.name: FAME
# Sample.name: Yttrium(III) solution at hydrothermal conditions: Y 0.011m Cl 0.79m HCl 0.75m
# Sample.temperature: 300.0 +/- 5.0 °C
# Sample.pressure: 800.0 bar
# Citation.doi:  https://doi.org/10.26302/SSHADE/EXPERIMENT_DT_20170222_001
# Citation.comments: Louvel, Marion; Testemale, Denis; Etschmann, Barbara; Brugger, Joel (2017): Y K edge XAS fluorescence of yttrium(III) solution at hydrothermal conditions: 800 bar 30 to 450°C. SSHADE/FAME (OSUG Data Center). Dataset/Spectral Data. https://doi.org/10.26302/SSHADE/EXPERIMENT_DT_20170222_001Schmitt, Bernard; Bollard, Philippe; Albert, Damien; Garenne, Alexandre; Bonal, Lydie; and the SSHADE partner's consortium (2018). SSHADE: 'Solid Spectroscopy Hosting Architecture of Databases and Expertise'. OSUG Data Center. Service/Database infrastructure. https://doi.org/10.26302/SSHADE
# ////
#---------
# energy(ev)	fluorescence_emission(au)
16850.200381	0.01291
16858.500381	0.01283
16864.300381	0.01260
16869.400382	0.01262
16874.600382	0.01262
16879.600382	0.01244
16884.400382	0.01241
16889.500382	0.01239
16892.900382	0.01231
16895.100382	0.01226
16896.900382	0.01228
16907.800382	0.01228
16914.600383	0.01222
16919.800383	0.01216
16924.700383	0.01229
16929.600383	0.01223
16934.700383	0.01228
16939.700383	0.01228
16944.700383	0.01237
16949.700383	0.01249
16954.800384	0.01278
16959.700384	0.01276
16964.700384	0.01295
16969.800384	0.01316
16974.800384	0.01352
16979.700384	0.01370
16984.800384	0.01423
16989.700384	0.01452
16994.700384	0.01532
16999.900385	0.01619
17001.100385	0.01637
17001.600385	0.01661
17002.300385	0.01666
17003.000385	0.01682
17003.600385	0.01690
17004.300385	0.01725
17005.000385	0.01751
17005.700385	0.01758
17006.400385	0.01763
17007.100385	0.01794
17007.800385	0.01818
17008.500385	0.01846
17009.200385	0.01868
17009.900385	0.01893
17010.600385	0.01907
17011.300385	0.01947
17012.000385	0.01973
17012.700385	0.02013
17013.400385	0.02033
17014.100385	0.02077
17014.800385	0.02118
17015.500385	0.02162
17016.200385	0.02212
17016.900385	0.02242
17017.600385	0.02304
17018.300385	0.02360
17019.000385	0.02414
17019.700385	0.02476
17020.400385	0.02540
17021.100385	0.02624
17021.800385	0.02709
17022.500385	0.02771
17023.200385	0.02915
17023.900385	0.03013
17024.600385	0.03120
17025.400385	0.03267
17026.000385	0.03404
17026.800385	0.03588
17027.500385	0.03786
17028.100385	0.04017
17028.800385	0.04289
17029.600385	0.04702
17030.200385	0.05134
17030.900385	0.05675
17031.600385	0.06311
17032.300385	0.06992
17033.000385	0.07808
17033.700385	0.08821
17034.400385	0.09952
17035.100385	0.11273
17035.800385	0.13035
17036.500385	0.15011
17037.200385	0.17419
17037.900385	0.20305
17038.600385	0.23639
17039.300385	0.27232
17040.000385	0.31133
17040.700385	0.34940
17041.400385	0.38944
17042.100386	0.43264
17042.900386	0.47935
17043.500386	0.51634
17044.200386	0.55522
17044.900386	0.58628
17045.600386	0.61510
17046.300386	0.63638
17047.000386	0.65128
17047.700386	0.66185
17048.400386	0.66510
17049.100386	0.66162
17049.800386	0.65332
17050.500386	0.64258
17051.200386	0.62811
17051.900386	0.61332
17052.600386	0.59765
17053.300386	0.58248
17054.000386	0.56932
17054.700386	0.55678
17055.400386	0.54489
17056.200386	0.53260
17056.900386	0.52304
17057.600386	0.51418
17058.300386	0.50561
17058.900386	0.49913
17059.600386	0.49188
17060.400386	0.48388
17061.000386	0.47741
17061.700386	0.47104
17062.400386	0.46544
17063.100386	0.46112
17063.800386	0.45680
17064.500386	0.45181
17065.200386	0.44835
17065.900386	0.44414
17066.600386	0.44069
17067.300386	0.43811
17068.000386	0.43659
17068.700386	0.43321
17069.400386	0.43207
17070.100386	0.42996
17070.800386	0.42842
17071.600386	0.42669
17072.300386	0.42567
17073.000386	0.42448
17073.600386	0.42416
17074.400386	0.42357
17075.000386	0.42361
17075.700386	0.42300
17076.400386	0.42289
17077.100386	0.42311
17077.800386	0.42526
17078.500386	0.42691
17079.200386	0.43002
17079.900386	0.43352
17080.600386	0.43684
17081.300386	0.44088
17082.000386	0.44491
17082.700386	0.44986
17083.400386	0.45466
17084.100386	0.45896
17084.800386	0.46497
17085.500386	0.46915
17086.200387	0.47321
17086.900387	0.47696
17087.700387	0.48140
17088.400387	0.48550
17089.000387	0.48755
17089.700387	0.49072
17090.400387	0.49432
17091.100387	0.49736
17091.800387	0.49919
17092.500387	0.50044
17093.200387	0.50225
17093.900387	0.50384
17094.600387	0.50314
17096.500387	0.50470
17097.600387	0.50487
17100.300387	0.50110
17102.200387	0.49695
17103.800387	0.49305
17105.400387	0.48878
17106.900387	0.48492
17108.500387	0.47928
17110.200387	0.47380
17111.800387	0.46883
17113.500387	0.46326
17115.100387	0.45849
17116.900387	0.45309
17118.700387	0.45003
17120.500387	0.44691
17122.200387	0.44483
17124.000387	0.44344
17125.800387	0.44318
17127.600387	0.44315
17129.400387	0.44398
17131.200388	0.44545
17133.200388	0.44803
17135.200388	0.44999
17137.100388	0.45203
17138.900388	0.45365
17140.900388	0.45582
17142.900388	0.45844
17144.900388	0.45998
17146.800388	0.46193
17149.000388	0.46314
17151.100388	0.46440
17153.100388	0.46490
17155.200388	0.46514
17157.300388	0.46497
17159.400388	0.46437
17161.500388	0.46436
17163.600388	0.46272
17166.000388	0.46221
17168.200388	0.46082
17170.300388	0.45893
17172.600388	0.45738
17174.800389	0.45622
17177.100389	0.45425
17179.400389	0.45262
17181.900389	0.45110
17184.200389	0.44985
17186.500389	0.44844
17188.800389	0.44759
17191.200389	0.44659
17193.500389	0.44601
17196.000389	0.44585
17198.600389	0.44578
17201.000389	0.44534
17203.400389	0.44540
17206.000389	0.44531
17208.500389	0.44531
17211.000389	0.44536
17213.700389	0.44607
17216.200389	0.44665
17218.900390	0.44715
17221.400390	0.44751
17224.000390	0.44793
17226.600390	0.44914
17229.500390	0.45071
17232.100390	0.45045
17234.800390	0.45113
17237.500390	0.45171
17240.300390	0.45147
17243.100390	0.45041
17246.000390	0.45042
17248.700390	0.44981
17251.500390	0.44931
17254.300390	0.44807
17257.100390	0.44805
17260.100390	0.44777
17263.100391	0.44701
17265.900391	0.44695
17268.900391	0.44606
17271.800391	0.44608
17274.800391	0.44539
17278.000391	0.44509
17280.900391	0.44510
17283.900391	0.44437
17286.800391	0.44409
17289.900391	0.44367
17293.200391	0.44351
17296.200391	0.44275
17299.300391	0.44303
17302.400391	0.44277
17305.600391	0.44297
17309.000392	0.44258
17312.100392	0.44251
17315.300392	0.44272
17318.400392	0.44192
17321.700392	0.44236
17325.200392	0.44236
17328.300392	0.44215
17331.700392	0.44214
17334.900392	0.44228
17338.400392	0.44151
17341.900392	0.44186
17345.200392	0.44120
17348.500392	0.44130
17351.800393	0.44075
17355.500393	0.44045
17358.900393	0.44065
17362.400393	0.44016
17365.900393	0.43952
17369.300393	0.43945
17373.100393	0.43902
17376.600393	0.43910
17380.200393	0.43818
17383.600393	0.43824
17387.300393	0.43839
17391.100393	0.43765
17394.600393	0.43754
17398.300394	0.43764
17402.000394	0.43735
17405.900394	0.43713
17409.500394	0.43689
17413.200394	0.43688
17416.800394	0.43650
17420.800394	0.43652
17424.600394	0.43622
17428.400394	0.43584
17432.200394	0.43552
17436.200394	0.43543
17440.100395	0.43550
17444.000395	0.43529
17447.700395	0.43498
17451.700395	0.43501
17455.800395	0.43467
17459.700395	0.43426
17463.600395	0.43416
17467.700395	0.43378
17471.900395	0.43393
17475.900395	0.43340
17479.800395	0.43355
17483.900396	0.43324
17488.200396	0.43278
17492.300396	0.43275
17496.300396	0.43293
17500.500396	0.43213
17504.900396	0.43177
17509.000396	0.43202
17513.000396	0.43183
17517.400396	0.43154
17521.700396	0.43069
17526.000396	0.43101
17530.100397	0.43052
17534.700397	0.43001
17539.000397	0.43066
17543.300397	0.42934
17547.500397	0.42965
17552.100397	0.42860
17556.500397	0.42913
17560.800397	0.42833
17565.300397	0.42824
17569.900397	0.42811
17574.300398	0.42766
17578.600398	0.42713
17583.300398	0.42735
17587.900398	0.42671
17592.400398	0.42681
17596.900398	0.42636
17601.700398	0.42581
17606.300398	0.42579
17610.800398	0.42577
17615.500398	0.42585
17620.200399	0.42500
17624.900399	0.42498
17629.500399	0.42491
17634.500399	0.42458
17639.200399	0.42430
17643.800399	0.42372
17648.600399	0.42393
17653.500399	0.42332
17658.300399	0.42287
17663.000400	0.42269
17668.200400	0.42290
17673.000400	0.42253
17677.700400	0.42208
17682.700400	0.42174
17687.600400	0.42154
17692.600400	0.42135
17697.600400	0.42132
17702.700400	0.42133
17707.600401	0.42055
17712.500401	0.42029
17717.700401	0.42036
17722.800401	0.41973
17727.700401	0.42004
17733.100401	0.41935
17738.200401	0.41948
17743.200401	0.41917
17748.300401	0.41869
17753.600402	0.41877
17758.800402	0.41847
17764.000402	0.41827
17769.400402	0.41766
17774.600402	0.41763
17779.600402	0.41761
