# XDI/1.0
# Column.1: energy(ev)
# Column.2: transmission(au)
# Element.symbol: Br
# Element.edge: K
# Mono.name: Si 2 2 0
# Mono.d_spacing: 1.92
# Beamline.name: FAME
# Sample.name: Pellet of cesium bromide anydrous salt mixed with BN
# Sample.temperature: 293.0 +/- 2.0 K
# Sample.pressure: None
# Citation.doi:  https://doi.org/10.26302/SSHADE/EXPERIMENT_OP_20180115_005
# Citation.comments: Proux, Olivier; Irar, Mohammed (2015): Br K edge XAS transmission and HERFD of cesium bromide anydrous salt at ambient conditions. SSHADE/FAME (OSUG Data Center). Dataset/Spectral Data. https://doi.org/10.26302/SSHADE/EXPERIMENT_OP_20180115_005Schmitt, Bernard; Bollard, Philippe; Albert, Damien; Garenne, Alexandre; Bonal, Lydie; and the SSHADE partner's consortium (2018). SSHADE: 'Solid Spectroscopy Hosting Architecture of Databases and Expertise'. OSUG Data Center. Service/Database infrastructure. https://doi.org/10.26302/SSHADE
# ////
#---------
# energy(ev)	transmission(au)
13354.200302	1.38302
13359.000302	1.38130
13364.300302	1.37962
13369.200302	1.37846
13374.400303	1.37736
13379.300303	1.37586
13384.300303	1.37448
13389.300303	1.37403
13394.400303	1.37247
13399.300303	1.37095
13404.400303	1.36986
13409.400303	1.36691
13414.500303	1.36504
13419.400304	1.36466
13424.400304	1.36300
13429.400304	1.36083
13434.400304	1.36123
13439.500304	1.36146
13444.500304	1.36124
13449.700304	1.36413
13450.500304	1.36466
13450.800304	1.36492
13451.000304	1.36484
13451.500304	1.36511
13452.000304	1.36579
13452.500304	1.36614
13453.000304	1.36646
13453.500304	1.36773
13454.000304	1.36817
13454.500304	1.36885
13455.000304	1.36962
13455.500304	1.37028
13456.000304	1.37095
13456.500304	1.37188
13457.000304	1.37264
13457.500304	1.37361
13458.000304	1.37439
13458.500304	1.37542
13459.000304	1.37647
13459.500304	1.37785
13460.000304	1.37919
13460.500304	1.38041
13461.000305	1.38180
13461.500305	1.38354
13462.000305	1.38557
13462.500305	1.38749
13463.000305	1.38922
13463.500305	1.39108
13464.000305	1.39406
13464.500305	1.39653
13465.000305	1.40007
13465.500305	1.40327
13466.000305	1.40684
13466.500305	1.41057
13467.000305	1.41467
13467.500305	1.41996
13468.000305	1.42508
13468.500305	1.43119
13469.000305	1.43848
13469.500305	1.44623
13470.000305	1.45577
13470.500305	1.46722
13471.000305	1.48011
13471.500305	1.49681
13472.000305	1.51563
13472.500305	1.54087
13473.000305	1.57036
13473.500305	1.60787
13474.000305	1.65671
13474.500305	1.71731
13475.000305	1.79272
13475.500305	1.89289
13476.000305	2.01391
13476.600305	2.19588
13477.000305	2.35932
13477.500305	2.60906
13478.000305	2.90994
13478.500305	3.22342
13479.000305	3.51376
13479.500305	3.70126
13480.000305	3.74746
13480.500305	3.69006
13481.000305	3.56938
13481.500305	3.41812
13482.000305	3.24950
13482.500305	3.09574
13483.000305	2.97649
13483.500305	2.88975
13484.000305	2.84591
13484.500305	2.83796
13485.000305	2.85286
13485.500305	2.87476
13486.000305	2.89293
13486.500305	2.90221
13487.000305	2.90360
13487.500305	2.89968
13488.000305	2.89365
13488.500305	2.88532
13489.000305	2.87740
13489.500305	2.87265
13490.000305	2.87896
13490.500305	2.89969
13491.000305	2.94143
13491.500305	2.99777
13492.000305	3.06370
13492.500305	3.13084
13493.000305	3.19477
13493.500305	3.24398
13494.300305	3.29956
13496.100305	3.30195
13497.300305	3.23075
13498.100305	3.16478
13499.000305	3.09112
13500.000305	3.01764
13501.000305	2.96011
13502.100305	2.92734
13503.100305	2.92844
13504.200305	2.95281
13505.300306	2.98688
13506.400306	3.01566
13507.500306	3.03583
13508.700306	3.04422
13509.800306	3.04852
13511.000306	3.05986
13512.200306	3.07555
13513.400306	3.08835
13514.700306	3.09201
13515.900306	3.08808
13517.200306	3.08045
13518.500306	3.06942
13519.800306	3.05440
13521.100306	3.03630
13522.400306	3.01503
13523.800306	2.99381
13525.200306	2.97765
13526.600306	2.96713
13528.000306	2.96242
13529.400306	2.96288
13530.900306	2.96759
13532.400306	2.97435
13534.000306	2.98128
13535.500306	2.98664
13537.000306	2.98948
13538.500306	2.99096
13540.100306	2.99478
13541.700306	3.00111
13543.400306	3.00587
13545.000306	3.00666
13546.600306	3.00202
13548.300306	2.99206
13550.000307	2.97772
13551.700307	2.96455
13553.500307	2.95326
13555.200307	2.94687
13556.900307	2.94206
13558.700307	2.93767
13560.400307	2.93481
13562.400307	2.93369
13564.200307	2.93511
13566.000307	2.93870
13567.900307	2.94362
13569.800307	2.94804
13571.700307	2.95075
13573.700307	2.95250
13575.600307	2.95230
13577.600307	2.95264
13579.600307	2.95258
13581.600307	2.95172
13583.700307	2.95076
13585.700307	2.94861
13587.700307	2.94578
13589.800307	2.94328
13591.900307	2.93887
13594.100308	2.93413
13596.200308	2.93107
13598.300308	2.92959
13600.500308	2.92836
13602.800308	2.92740
13605.000308	2.92555
13607.200308	2.92514
13609.400308	2.92569
13611.800308	2.92661
13614.000308	2.92673
13616.300308	2.92618
13618.600308	2.92486
13621.100308	2.92299
13623.400308	2.92170
13625.700308	2.92008
13628.100308	2.91758
13630.600308	2.91562
13633.000308	2.91294
13635.500308	2.90999
13637.900309	2.90733
13640.500309	2.90505
13643.000309	2.90328
13645.500309	2.90163
13648.000309	2.90005
13650.700309	2.89899
13653.300309	2.89708
13655.900309	2.89635
13658.500309	2.89435
13661.300309	2.89174
13663.800309	2.88960
13666.500309	2.88873
13669.200309	2.88682
13672.000309	2.88454
13674.700309	2.88203
13677.400309	2.87883
13680.300309	2.87526
13683.000310	2.87198
13685.800310	2.86947
13688.700310	2.86755
13691.600310	2.86641
13694.400310	2.86494
13697.300310	2.86354
13700.300310	2.86285
13703.200310	2.86151
13706.100310	2.85980
13709.100310	2.85864
13712.200310	2.85703
