# XDI/1.0
# Column.1: energy(ev)
# Column.2: fluorescence_emission(au)
# Element.symbol: Br
# Element.edge: K
# Mono.name: Si 2 2 0
# Mono.d_spacing: 1.92
# Beamline.name: FAME
# Sample.name: Gallium bromide solution in hydrothermal conditions: Ga3+ 0.017m, Br- 0.051m
# Sample.temperature: 560.0 +/- 0.1 K
# Sample.pressure: 300.0 +/- 0.5 bar
# Citation.doi:  https://doi.org/10.26302/SSHADE/EXPERIMENT_DT_20180710_001
# Citation.comments: Da Silva, CÃ©cile; Testemale, Denis; Hazemann, Jean-Louis; Proux, Olivier (2006): Br K edge XAS of gallium bromide solution in hydrothermal conditions at 300bars and between 300 and 650K. SSHADE/FAME (OSUG Data Center). Dataset/Spectral Data. https://doi.org/10.26302/SSHADE/EXPERIMENT_DT_20180710_001Schmitt, Bernard; Bollard, Philippe; Albert, Damien; Garenne, Alexandre; Bonal, Lydie; and the SSHADE partner's consortium (2018). SSHADE: 'Solid Spectroscopy Hosting Architecture of Databases and Expertise'. OSUG Data Center. Service/Database infrastructure. https://doi.org/10.26302/SSHADE
# ////
#---------
# energy(ev)	fluorescence_emission(au)
13304.400301	0.02199
13309.700301	0.02191
13314.700301	0.02183
13319.700301	0.02171
13325.000301	0.02175
13329.900302	0.02170
13335.000302	0.02177
13339.900302	0.02169
13345.000302	0.02171
13349.900302	0.02174
13355.000302	0.02186
13360.000302	0.02175
13364.900302	0.02194
13370.000302	0.02203
13375.000303	0.02222
13379.900303	0.02237
13384.900303	0.02250
13390.000303	0.02290
13394.900303	0.02315
13400.000303	0.02356
13404.900303	0.02407
13410.100303	0.02470
13414.900303	0.02542
13420.000304	0.02632
13424.900304	0.02735
13430.000304	0.02906
13434.900304	0.03099
13435.400304	0.03119
13435.900304	0.03133
13436.400304	0.03159
13436.900304	0.03170
13437.400304	0.03210
13437.900304	0.03236
13438.400304	0.03258
13438.900304	0.03275
13439.400304	0.03301
13439.900304	0.03331
13440.400304	0.03361
13440.900304	0.03407
13441.400304	0.03429
13441.900304	0.03480
13442.400304	0.03493
13442.900304	0.03541
13443.400304	0.03580
13443.900304	0.03622
13444.500304	0.03656
13444.900304	0.03688
13445.400304	0.03735
13445.900304	0.03769
13446.400304	0.03822
13446.900304	0.03875
13447.400304	0.03917
13447.900304	0.03975
13448.500304	0.04040
13448.900304	0.04084
13449.400304	0.04137
13449.900304	0.04220
13450.400304	0.04264
13450.900304	0.04330
13451.400304	0.04417
13451.900304	0.04477
13452.400304	0.04577
13452.900304	0.04663
13453.400304	0.04741
13453.900304	0.04843
13454.500304	0.04951
13454.900304	0.05033
13455.400304	0.05145
13455.900304	0.05264
13456.400304	0.05395
13456.900304	0.05497
13457.400304	0.05650
13457.900304	0.05801
13458.400304	0.05974
13458.900304	0.06137
13459.400304	0.06329
13459.900304	0.06526
13460.400304	0.06734
13460.900305	0.06981
13461.400305	0.07276
13461.900305	0.07540
13462.400305	0.07860
13462.900305	0.08218
13463.400305	0.08523
13463.900305	0.08996
13464.400305	0.09461
13464.900305	0.09989
13465.400305	0.10596
13465.900305	0.11274
13466.400305	0.12087
13466.900305	0.13010
13467.400305	0.14024
13467.900305	0.15430
13468.400305	0.17069
13468.900305	0.19022
13469.400305	0.21585
13469.900305	0.24985
13470.400305	0.29460
13470.900305	0.35878
13471.400305	0.44287
13472.000305	0.57779
13472.400305	0.69840
13473.000305	0.87197
13473.500305	1.04017
13473.900305	1.18079
13474.400305	1.33623
13474.900305	1.44622
13475.400305	1.52567
13475.900305	1.57614
13476.400305	1.61168
13476.900305	1.63326
13477.400305	1.64632
13477.900305	1.64988
13478.400305	1.64228
13478.900305	1.62607
13479.400305	1.59994
13479.900305	1.56274
13480.400305	1.52034
13480.900305	1.47266
13481.400305	1.42702
13481.900305	1.38289
13482.400305	1.34961
13482.900305	1.31801
13483.400305	1.29124
13483.900305	1.27418
13484.400305	1.26360
13484.900305	1.25819
13485.400305	1.25963
13485.900305	1.26502
13486.400305	1.27325
13486.900305	1.28414
13487.400305	1.29690
13487.900305	1.31124
13488.400305	1.32498
13488.900305	1.33893
13489.400305	1.35368
13489.900305	1.36816
13490.400305	1.38230
13490.900305	1.39452
13491.500305	1.40614
13491.900305	1.41483
13492.700305	1.43112
13494.500305	1.44964
13495.300305	1.45524
13496.200305	1.45809
13497.200305	1.45938
13498.100305	1.45634
13499.000305	1.45249
13500.000305	1.44670
13501.100305	1.43972
13502.100305	1.43182
13503.200305	1.42212
13504.300305	1.41261
13505.300306	1.40289
13506.400306	1.39280
13507.500306	1.38318
13508.600306	1.37528
13509.700306	1.37019
13511.000306	1.36379
13512.200306	1.35963
13513.400306	1.35694
13514.600306	1.35493
13515.900306	1.35550
13517.100306	1.35615
13518.400306	1.35774
13519.600306	1.35973
13521.000306	1.36255
13522.400306	1.36370
13523.700306	1.36668
13525.100306	1.36758
13526.500306	1.36896
13527.900306	1.37065
13529.400306	1.37039
13530.900306	1.36888
13532.300306	1.36741
13533.800306	1.36583
13535.300306	1.36365
13536.800306	1.35987
13538.300306	1.35739
13540.000306	1.35296
13541.600306	1.35087
13543.100306	1.34618
13544.800306	1.34411
13546.400306	1.34147
13548.100306	1.33824
13549.800307	1.33688
13551.400307	1.33451
13553.200307	1.33425
13555.000307	1.33432
13556.700307	1.33347
13558.500307	1.33351
13560.400307	1.33379
13562.100307	1.33364
13563.900307	1.33507
13565.800307	1.33574
13567.600307	1.33711
13569.600307	1.33732
13571.500307	1.33849
13573.400307	1.33835
13575.400307	1.33968
13577.300307	1.34024
13579.400307	1.34013
13581.300307	1.34056
13583.300307	1.33929
13585.300307	1.33891
13587.400307	1.33793
13589.500307	1.33710
13591.600307	1.33667
13593.700308	1.33602
13595.900308	1.33615
13598.000308	1.33514
13600.200308	1.33408
13602.400308	1.33442
13604.600308	1.33433
13606.800308	1.33401
13609.100308	1.33429
13611.400308	1.33226
13613.600308	1.33297
13615.900308	1.33299
13618.300308	1.33289
13620.600308	1.33245
13622.900308	1.33101
13625.300308	1.32994
13627.700308	1.32955
13630.100308	1.32884
13632.600308	1.32822
13635.000308	1.32702
13637.600309	1.32678
13640.000309	1.32504
13642.500309	1.32457
13645.000309	1.32425
13647.700309	1.32376
13650.200309	1.32241
13652.800309	1.32171
13655.400309	1.32151
13658.100309	1.32110
13660.600309	1.32082
13663.300309	1.32002
13666.000309	1.31842
13668.700309	1.31856
13671.400309	1.31835
13674.100309	1.31670
13677.000309	1.31650
13679.700309	1.31592
13682.400310	1.31514
13685.200310	1.31464
13688.100310	1.31460
13691.000310	1.31371
13693.800310	1.31364
13696.800310	1.31444
13699.700310	1.31345
13702.500310	1.31352
13705.600310	1.31285
13708.500310	1.31227
13711.500310	1.31164
13714.500310	1.31110
13717.500310	1.31119
13720.600310	1.31009
13723.600310	1.30927
13726.800311	1.30921
13729.800311	1.30854
13733.000311	1.30842
13736.100311	1.30722
13739.200311	1.30697
13742.400311	1.30618
13745.600311	1.30528
13748.800311	1.30553
13752.000311	1.30348
13755.200311	1.30384
13758.500311	1.30299
13761.800311	1.30292
13765.100311	1.30236
13768.500311	1.30132
13771.800312	1.30044
13775.200312	1.29987
13778.600312	1.29799
13781.900312	1.29669
13785.400312	1.29743
13788.800312	1.29652
13792.200312	1.29677
13795.700312	1.29518
13799.200312	1.29458
13802.700312	1.29289
13806.300312	1.29298
13809.800312	1.29199
13813.300312	1.29179
13817.000313	1.29089
13820.500313	1.29029
13824.200313	1.29042
13827.900313	1.28944
13831.500313	1.28806
13835.300313	1.28692
13839.000313	1.28679
13842.600313	1.28559
13846.400313	1.28572
13850.100313	1.28398
13853.800313	1.28321
13857.600313	1.28281
13861.500314	1.28232
13865.300314	1.28086
13869.200314	1.28054
13873.000314	1.27930
13877.000314	1.27824
13880.900314	1.27762
13884.700314	1.27750
13888.800314	1.27662
13892.600314	1.27562
13896.700314	1.27530
13900.700314	1.27415
13904.600315	1.27264
13908.800315	1.27233
13912.800315	1.27157
13916.900315	1.26973
13920.900315	1.26915
13925.000315	1.26827
13929.200315	1.26729
13933.300315	1.26668
13937.600315	1.26496
13941.800315	1.26518
13945.900315	1.26473
13950.300316	1.26318
13954.400316	1.26237
13958.700316	1.26198
13963.000316	1.26078
13967.300316	1.25909
13971.600316	1.25756
13975.900316	1.25678
13980.400316	1.25661
13984.700316	1.25569
13989.100316	1.25473
13993.600317	1.25287
13997.900317	1.25269
14002.400317	1.25197
14006.800317	1.25120
14011.500317	1.24979
14015.900317	1.24935
14020.400317	1.24818
14024.900317	1.24695
14029.500317	1.24633
14034.200317	1.24532
14038.700318	1.24530
14043.400318	1.24406
14048.000318	1.24314
14052.700318	1.24173
14057.300318	1.24154
14062.100318	1.24031
14066.800318	1.23919
14071.600318	1.23857
14076.300318	1.23884
14081.000319	1.23755
14085.800319	1.23623
14090.600319	1.23515
14095.500319	1.23503
14100.200319	1.23356
14105.300319	1.23233
14110.100319	1.23216
14115.000319	1.23130
14119.900319	1.23035
14124.900320	1.22955
14129.900320	1.22849
14134.800320	1.22806
14139.800320	1.22663
14144.900320	1.22589
14150.000320	1.22464
14155.000320	1.22311
14160.000320	1.22296
14165.000320	1.22138
14170.200321	1.22061
14175.300321	1.22039
14180.600321	1.21936
14185.700321	1.21856
14191.000321	1.21832
14196.000321	1.21736
14201.300321	1.21618
14206.500321	1.21513
14211.900321	1.21432
14217.100322	1.21256
14222.500322	1.21241
14227.700322	1.21197
14233.200322	1.21006
14238.400322	1.21010
14243.900322	1.20932
14249.200322	1.20783
14254.700322	1.20638
14260.100323	1.20575
14265.600323	1.20452
14270.900323	1.20351
14276.400323	1.20264
14281.900323	1.20235
14287.600323	1.20084
14293.000323	1.19954
14298.800323	1.19903
14304.300324	1.19864
14309.900324	1.19714
14315.500324	1.19555
14321.100324	1.19505
14326.900324	1.19332
14332.500324	1.19213
14338.200324	1.19105
14343.900324	1.19024
14349.600325	1.18982
14355.300325	1.18924
14361.200325	1.18858
14367.000325	1.18655
14372.900325	1.18499
14378.600325	1.18425
14384.600325	1.18308
14390.400326	1.18262
14396.300326	1.18184
14402.200326	1.18032
14408.200326	1.17966
14414.000326	1.17840
14419.900326	1.17755
14426.000326	1.17606
14432.000326	1.17533
14438.100327	1.17399
