# XDI/1.0
# Column.1: energy(ev)
# Column.2: fluorescence_emission(au)
# Element.symbol: Cu
# Element.edge: K
# Mono.name: Si 2 2 0
# Mono.d_spacing: 1.92
# Beamline.name: FAME
# Sample.name: Pellet of CuO mixed with BN
# Sample.temperature: 293.0 +/- 2.0 K
# Sample.pressure: None
# Citation.doi:  https://doi.org/10.26302/SSHADE/EXPERIMENT_OP_20180717_001
# Citation.comments: Proux, Olivier; Testemale, Denis; Hazemann, Jean-Louis (2009): Cu K edge XAS HERFD (Kalpha1) of CuO at ambient conditions. SSHADE/FAME (OSUG Data Center). Dataset/Spectral Data. https://doi.org/10.26302/SSHADE/EXPERIMENT_OP_20180717_001Schmitt, Bernard; Bollard, Philippe; Albert, Damien; Garenne, Alexandre; Bonal, Lydie; and the SSHADE partner's consortium (2018). SSHADE: 'Solid Spectroscopy Hosting Architecture of Databases and Expertise'. OSUG Data Center. Service/Database infrastructure. https://doi.org/10.26302/SSHADE
# ////
#---------
# energy(ev)	fluorescence_emission(au)
8850.000200	0.00004
8851.960200	-0.00011
8854.020200	-0.00011
8856.020200	-0.00016
8858.040200	-0.00015
8860.010200	0.00002
8862.020200	-0.00008
8864.000201	-0.00007
8866.010201	0.00029
8868.020201	0.00002
8870.050201	-0.00007
8872.040201	0.00005
8874.030201	0.00014
8876.020201	-0.00021
8878.010201	-0.00007
8879.990201	0.00004
8882.020201	-0.00003
8884.020201	-0.00011
8885.980201	0.00020
8888.030201	0.00005
8890.040201	-0.00019
8892.020201	-0.00012
8894.020201	-0.00017
8896.020201	0.00008
8898.010201	-0.00017
8900.020201	-0.00010
8902.010201	0.00022
8903.980201	0.00013
8906.010201	0.00015
8908.020202	-0.00006
8910.000202	0.00005
8912.040202	-0.00020
8914.040202	-0.00003
8916.000202	0.00015
8918.000202	0.00004
8920.010202	0.00009
8922.030202	0.00017
8924.010202	0.00017
8926.030202	0.00003
8928.030202	0.00016
8929.980202	0.00014
8932.030202	0.00002
8934.040202	0.00040
8936.040202	-0.00001
8938.040202	0.00044
8940.020202	0.00011
8942.040202	0.00014
8944.010202	0.00028
8945.980202	0.00038
8948.010202	0.00011
8950.030202	0.00050
8952.010203	0.00040
8954.010203	0.00039
8956.010203	0.00039
8958.050203	0.00036
8960.000203	0.00036
8962.030203	0.00077
8964.030203	0.00078
8966.050203	0.00080
8968.010203	0.00107
8970.030203	0.00112
8970.490203	0.00148
8970.980203	0.00133
8971.510203	0.00170
8972.010203	0.00157
8972.500203	0.00174
8972.980203	0.00175
8973.510203	0.00181
8974.040203	0.00224
8974.490203	0.00210
8974.970203	0.00300
8975.470203	0.00389
8975.980203	0.00589
8976.510203	0.01116
8976.990203	0.02362
8977.510203	0.03910
8978.000203	0.03314
8978.510203	0.01998
8979.000203	0.01848
8979.500203	0.02692
8980.050203	0.04022
8980.530203	0.05607
8981.000203	0.07282
8981.540203	0.09362
8982.010203	0.12795
8982.510203	0.19550
8982.980203	0.30532
8983.490203	0.45569
8984.010203	0.59338
8984.520203	0.67942
8985.010203	0.70583
8985.500203	0.69091
8986.000203	0.65684
8986.510203	0.62237
8987.000203	0.60728
8987.500203	0.62672
8988.010203	0.67889
8988.510203	0.74604
8989.010203	0.81026
8989.490203	0.86365
8990.010203	0.91749
8990.510203	0.97006
8991.000203	1.02651
8991.490203	1.06598
8992.000203	1.09323
8992.490203	1.11489
8993.000203	1.13763
8993.510203	1.15460
8994.000203	1.16790
8994.510203	1.17751
8994.990203	1.19163
8995.510203	1.21268
8996.000204	1.23137
8996.510204	1.24227
8997.010204	1.24548
8997.490204	1.23728
8998.000204	1.22376
8998.490204	1.20718
8999.000204	1.19004
8999.490204	1.17569
8999.990204	1.15573
9000.500204	1.13583
9001.000204	1.11263
9001.510204	1.09113
9002.000204	1.07138
9002.510204	1.05733
9003.000204	1.04462
9003.500204	1.03464
9003.990204	1.02444
9004.510204	1.01582
9005.010204	1.00916
9005.500204	1.00285
9006.010204	0.99574
9006.510204	0.99413
9007.010204	0.99311
9007.490204	0.99428
9007.990204	0.99789
9008.510204	1.00334
9009.020204	1.00768
9009.510204	1.01338
9010.010204	1.01885
9010.510204	1.02310
9011.010204	1.02509
9011.480204	1.02886
9011.980204	1.02822
9012.490204	1.02623
9013.020204	1.02355
9013.510204	1.02089
9013.980204	1.01513
9014.540204	1.01261
9014.990204	1.00914
9015.490204	1.00814
9015.980204	1.00404
9016.510204	0.99848
9017.020204	0.99648
9017.510204	0.99224
9018.000204	0.98498
9018.500204	0.98108
9019.010204	0.97265
9019.500204	0.96683
9019.970204	0.95815
9020.480204	0.95207
9021.020204	0.94308
9021.510204	0.93529
9022.000204	0.93007
9022.510204	0.92428
9022.990204	0.91962
9023.500204	0.91509
9024.010204	0.91389
9024.490204	0.90768
9025.010204	0.90533
9025.500204	0.90288
9026.010204	0.90122
9026.510204	0.90061
9027.000204	0.90141
9027.490204	0.90094
9028.000204	0.90395
9028.490204	0.90773
9028.990204	0.91094
9029.510204	0.91661
9030.010204	0.91993
9030.520204	0.92571
9030.990204	0.93103
9031.500204	0.93625
9032.000204	0.94185
9032.500204	0.94897
9033.020204	0.95281
9033.520204	0.95704
9034.010204	0.96346
9034.510204	0.96991
9035.010204	0.97207
9035.500204	0.97588
9036.000204	0.98226
9036.480204	0.98717
9037.000204	0.99166
9037.930204	1.00055
9039.740204	1.01854
9040.570205	1.02668
9041.530205	1.02968
9042.460205	1.03522
9043.390205	1.03854
9044.310205	1.04149
9045.230205	1.04425
9046.240205	1.04850
9047.170205	1.05260
9048.150205	1.05404
9049.110205	1.05642
9050.120205	1.05749
9051.110205	1.05560
9052.090205	1.05287
9053.040205	1.04989
9054.090205	1.04579
9055.120205	1.03902
9056.120205	1.03709
9057.120205	1.03486
9058.180205	1.03086
9059.220205	1.02674
9060.250205	1.02479
9061.290205	1.02248
9062.390205	1.02132
9063.470205	1.01764
9064.510205	1.01561
9065.570205	1.01524
9066.670205	1.01262
9067.790205	1.01155
9068.860205	1.00778
9069.960205	1.00856
9071.140205	1.00632
9072.240205	1.00522
9073.340205	1.00332
9074.500205	1.00237
9075.660205	1.00075
9076.800205	0.99924
9077.950205	0.99760
9079.140205	0.99922
9080.250205	0.99835
9081.430205	0.99684
9082.610205	0.99578
9083.850205	0.99606
9085.030206	0.99478
9086.220206	0.99269
9087.430206	0.99071
9088.670206	0.99124
9089.870206	0.99043
9091.080206	0.99025
9092.370206	0.99237
9093.590206	0.99163
9094.830206	0.99025
9096.120206	0.98897
9097.370206	0.98831
9098.620206	0.98909
9099.900206	0.98754
9101.230206	0.98945
9102.490206	0.98964
9103.790206	0.98775
9105.130206	0.98732
9106.400206	0.98795
9107.690206	0.98891
9109.070206	0.98915
9110.360206	0.98984
9111.680206	0.98923
9113.080206	0.98882
9114.420206	0.99039
9115.750206	0.99082
9117.170206	0.99241
9118.540206	0.99240
9119.880206	0.99514
9121.320206	0.99506
9122.700206	0.99881
9124.040206	1.00203
9125.530206	1.00647
9126.900206	1.00849
9128.300206	1.00941
9129.780207	1.01117
9131.190207	1.01305
9132.610207	1.01377
9134.110207	1.01627
9135.540207	1.01598
9136.960207	1.01589
9138.450207	1.01519
9139.910207	1.01507
9141.380207	1.01538
9142.910207	1.01388
9144.400207	1.01396
9145.910207	1.01254
9147.440207	1.01107
9148.950207	1.01183
9150.440207	1.01208
9151.990207	1.00988
9153.470207	1.00951
9155.070207	1.00877
9156.630207	1.00891
9158.140207	1.00742
9159.750207	1.00634
9161.310207	1.00507
9162.850207	1.00297
9164.460207	1.00179
9166.030207	0.99877
9167.660207	0.99560
9169.240207	0.99289
9170.840207	0.99050
9172.520207	0.98829
9174.130208	0.98743
9175.720208	0.98600
9177.410208	0.98491
9179.020208	0.98613
9180.700208	0.98956
9182.320208	0.99165
9183.970208	0.99326
9185.690208	0.99535
9187.340208	0.99806
9189.050208	0.99902
9190.730208	0.99826
9192.410208	0.99809
9194.190208	0.99647
9195.850208	0.99659
9197.580208	0.99588
9199.300208	0.99615
9201.000208	0.99636
