# XDI/1.0
# Column.1: energy(ev)
# Column.2: fluorescence_emission(au)
# Element.symbol: Cu
# Element.edge: K
# Mono.name: Si 2 2 0
# Mono.d_spacing: 1.92
# Beamline.name: FAME
# Sample.name: Frozen solution of CuSO4â€¢n(H2O)
# Sample.temperature: 10.0 +/- 1.0 K
# Sample.pressure: None
# Citation.doi:  https://doi.org/10.26302/SSHADE/EXPERIMENT_OP_20201112_001
# Citation.comments: Proux, Olivier (2020): Cu K edge XAS fluorescence of Cu(II) in solution at 10K. SSHADE/FAME (OSUG Data Center). Dataset/Spectral Data. https://doi.org/10.26302/SSHADE/EXPERIMENT_OP_20201112_001Schmitt, Bernard; Bollard, Philippe; Albert, Damien; Garenne, Alexandre; Bonal, Lydie; and the SSHADE partner's consortium (2018). SSHADE: 'Solid Spectroscopy Hosting Architecture of Databases and Expertise'. OSUG Data Center. Service/Database infrastructure. https://doi.org/10.26302/SSHADE
# ////
#---------
# energy(ev)	fluorescence_emission(au)
8928.550202	0.00121
8931.640202	0.00119
8933.810202	0.00119
8935.840202	0.00122
8937.860202	0.00121
8939.810202	0.00121
8941.850202	0.00121
8943.870202	0.00122
8945.860202	0.00121
8947.840202	0.00121
8949.870202	0.00122
8951.880203	0.00123
8953.880203	0.00124
8955.840203	0.00125
8957.900203	0.00124
8959.900203	0.00125
8961.900203	0.00125
8963.860203	0.00129
8965.950203	0.00130
8967.980203	0.00133
8969.990203	0.00137
8971.930203	0.00141
8974.050203	0.00147
8974.610203	0.00149
8975.010203	0.00153
8975.470203	0.00154
8976.000203	0.00160
8976.480203	0.00170
8976.980203	0.00179
8977.490203	0.00182
8977.980203	0.00180
8978.470203	0.00179
8978.980203	0.00181
8979.460203	0.00184
8979.970203	0.00193
8980.510203	0.00203
8980.980203	0.00216
8981.480203	0.00232
8981.990203	0.00260
8982.500203	0.00288
8982.960203	0.00312
8983.480203	0.00331
8984.000203	0.00347
8984.480203	0.00374
8984.990203	0.00415
8985.490203	0.00471
8985.970203	0.00553
8986.470203	0.00661
8986.990203	0.00803
8987.450203	0.00965
8987.970203	0.01157
8988.500203	0.01365
8988.990203	0.01551
8989.480203	0.01730
8989.980203	0.01904
8990.510203	0.02081
8990.970203	0.02226
8991.480203	0.02400
8992.000203	0.02560
8992.480203	0.02711
8992.990203	0.02882
8993.480203	0.03049
8993.990203	0.03210
8994.470203	0.03338
8994.970203	0.03431
8995.480203	0.03484
8995.960204	0.03483
8996.480204	0.03436
8997.020204	0.03367
8997.480204	0.03295
8997.980204	0.03214
8998.490204	0.03144
8999.010204	0.03077
8999.470204	0.03007
8999.980204	0.02932
9000.500204	0.02860
9000.970204	0.02794
9001.480204	0.02717
9002.000204	0.02653
9002.470204	0.02580
9002.970204	0.02505
9003.480204	0.02441
9003.960204	0.02388
9004.470204	0.02345
9005.010204	0.02306
9005.480204	0.02283
9005.980204	0.02277
9006.490204	0.02260
9007.010204	0.02247
9007.460204	0.02230
9007.980204	0.02220
9008.500204	0.02207
9008.980204	0.02203
9009.490204	0.02184
9009.980204	0.02175
9010.500204	0.02161
9010.970204	0.02145
9011.470204	0.02135
9011.980204	0.02122
9012.460204	0.02101
9012.990204	0.02082
9013.520204	0.02070
9013.980204	0.02055
9014.480204	0.02045
9014.990204	0.02029
9015.500204	0.02017
9015.960204	0.01997
9016.480204	0.01997
9017.020204	0.01984
9017.490204	0.01978
9017.970204	0.01974
9018.480204	0.01965
9019.000204	0.01967
9019.470204	0.01965
9019.960204	0.01963
9020.480204	0.01962
9020.970204	0.01957
9021.500204	0.01963
9022.010204	0.01966
9022.470204	0.01967
9022.990204	0.01967
9023.490204	0.01965
9024.000204	0.01973
9024.480204	0.01981
9024.980204	0.01989
9025.500204	0.01991
9026.010204	0.02006
9026.450204	0.02012
9026.980204	0.02023
9027.490204	0.02026
9027.960204	0.02037
9028.460204	0.02052
9028.990204	0.02068
9029.480204	0.02079
9030.000204	0.02095
9030.490204	0.02101
9031.000204	0.02118
9031.480204	0.02134
9031.980204	0.02144
9032.480204	0.02169
9033.000204	0.02179
9033.480204	0.02192
9033.990204	0.02207
9034.480204	0.02219
9034.990204	0.02236
9035.460204	0.02246
9035.970204	0.02259
9036.480204	0.02279
9036.960204	0.02288
9037.480204	0.02291
9038.020204	0.02301
9039.400204	0.02327
9042.480205	0.02358
9044.190205	0.02364
9045.660205	0.02368
9047.300205	0.02379
9048.910205	0.02384
9050.540205	0.02382
9052.170205	0.02382
9053.810205	0.02380
9055.560205	0.02384
9057.260205	0.02379
9059.000205	0.02383
9060.720205	0.02372
9062.460205	0.02366
9064.290205	0.02351
9066.090205	0.02346
9067.910205	0.02332
9069.710205	0.02311
9071.610205	0.02297
9073.500205	0.02286
9075.400205	0.02266
9077.290205	0.02251
9079.200205	0.02237
9081.210205	0.02224
9083.170205	0.02212
9085.160206	0.02210
9087.120206	0.02198
9089.220206	0.02197
9091.250206	0.02201
9093.330206	0.02200
9095.350206	0.02210
9097.550206	0.02216
9099.610206	0.02220
9101.810206	0.02226
9103.880206	0.02232
9106.140206	0.02241
9108.330206	0.02241
9110.520206	0.02252
9112.750206	0.02255
9115.040206	0.02257
9117.320206	0.02265
9119.560206	0.02269
9121.900206	0.02275
9124.240206	0.02282
9126.610206	0.02289
9128.920207	0.02293
9131.360207	0.02297
9133.770207	0.02293
9136.160207	0.02299
9138.620207	0.02303
9141.090207	0.02302
9143.590207	0.02302
9146.040207	0.02299
9148.610207	0.02297
9151.150207	0.02292
9153.640207	0.02286
9156.280207	0.02287
9158.880207	0.02280
9161.470207	0.02273
9164.100207	0.02268
9166.760207	0.02259
9169.460207	0.02253
9172.110207	0.02249
9174.840208	0.02245
9177.590208	0.02239
9180.280208	0.02233
9183.090208	0.02229
9185.870208	0.02228
9188.640208	0.02225
9191.500208	0.02224
9194.350208	0.02227
9197.160208	0.02232
9200.070208	0.02226
9202.980208	0.02228
9205.860208	0.02229
9208.830208	0.02226
9211.790208	0.02227
9214.730208	0.02228
9217.740209	0.02230
9220.760209	0.02232
9223.770209	0.02236
9226.830209	0.02241
9229.910209	0.02233
9232.990209	0.02239
9236.100209	0.02239
9239.190209	0.02241
9242.370209	0.02240
9245.550209	0.02238
9248.650209	0.02240
9251.960209	0.02237
9255.120209	0.02229
9258.330209	0.02229
9261.630210	0.02227
9264.910210	0.02226
9268.190210	0.02224
9271.530210	0.02223
9274.800210	0.02219
9278.230210	0.02213
9281.550210	0.02211
9284.930210	0.02206
9288.410210	0.02201
9291.700210	0.02197
9295.260210	0.02198
9298.710210	0.02195
9302.150210	0.02192
9305.680211	0.02192
9309.180211	0.02186
9312.740211	0.02191
9316.320211	0.02183
9319.850211	0.02182
9323.470211	0.02179
9327.040211	0.02177
9330.720211	0.02176
9334.380211	0.02178
9338.030211	0.02180
9341.750211	0.02177
9345.390211	0.02176
9349.160211	0.02177
9352.930212	0.02181
9356.660212	0.02178
9360.480212	0.02178
9364.230212	0.02177
9368.100212	0.02178
9371.880212	0.02173
9375.770212	0.02170
9379.650212	0.02175
9383.530212	0.02170
9387.400212	0.02169
9391.440212	0.02170
9395.350213	0.02160
9399.300213	0.02166
9403.250213	0.02164
9407.360213	0.02158
9411.380213	0.02160
9415.420213	0.02157
9419.460213	0.02156
9423.510213	0.02155
9427.710213	0.02151
9431.810213	0.02150
9435.910213	0.02149
9440.140214	0.02144
9444.260214	0.02139
9448.480214	0.02138
9452.690214	0.02137
9456.950214	0.02137
9461.210214	0.02138
9465.480214	0.02137
9469.800214	0.02131
9474.080214	0.02131
9478.430214	0.02132
9482.770215	0.02126
9487.160215	0.02129
9491.510215	0.02128
9495.970215	0.02130
9500.320215	0.02129
9504.840215	0.02124
9509.240215	0.02124
9513.770215	0.02125
9518.230215	0.02124
9522.790215	0.02119
9527.270216	0.02122
9531.860216	0.02119
9536.370216	0.02119
9540.990216	0.02121
9545.530216	0.02117
9550.190216	0.02116
9554.800216	0.02116
9559.600216	0.02113
9564.180216	0.02110
9569.020216	0.02108
9573.630217	0.02104
9578.490217	0.02105
9583.150217	0.02099
9588.050217	0.02101
9592.730217	0.02100
9597.670217	0.02093
9602.400217	0.02096
9607.340217	0.02096
9612.190217	0.02094
9617.100218	0.02092
9621.990218	0.02090
9626.960218	0.02085
9631.890218	0.02086
9636.880218	0.02085
9641.860218	0.02081
9646.860218	0.02082
9651.920218	0.02080
9656.950218	0.02079
9662.070219	0.02078
9667.090219	0.02075
9672.260219	0.02072
9677.320219	0.02070
9682.490219	0.02068
9687.620219	0.02072
9692.840219	0.02068
9698.000219	0.02067
9703.230220	0.02067
9708.440220	0.02063
9713.710220	0.02063
9719.040220	0.02061
9724.260220	0.02058
9729.660220	0.02060
9734.920220	0.02056
9740.280220	0.02058
9745.630220	0.02056
9751.040221	0.02054
9756.460221	0.02053
9761.830221	0.02050
9767.330221	0.02047
9772.760221	0.02043
9778.330221	0.02043
9783.780221	0.02042
9789.340221	0.02041
9794.860222	0.02037
9800.410222	0.02042
9806.010222	0.02033
9811.550222	0.02032
9817.240222	0.02033
9822.830222	0.02031
9828.500222	0.02028
