# XDI/1.0
# Column.1: energy(ev)
# Column.2: fluorescence_emission(au)
# Element.symbol: Ga
# Element.edge: K
# Mono.name: Si 2 2 0
# Mono.d_spacing: 1.92
# Beamline.name: FAME
# Sample.name: Gallium bromide solution in hydrothermal conditions: Ga3+ 0.017m, Br- 0.051m
# Sample.temperature: 670.0 +/- 0.1 K
# Sample.pressure: 300.0 +/- 0.5 bar
# Citation.doi:  https://doi.org/10.26302/SSHADE/EXPERIMENT_DT_20180710_002
# Citation.comments: Da Silva, CÃ©cile; Testemale, Denis; Hazemann, Jean-Louis; Proux, Olivier (2006): Ga K edge XAS fluorescence of gallium bromide solution in hydrothermal conditions at 300bars and between 300 and 670K. SSHADE/FAME (OSUG Data Center). Dataset/Spectral Data. https://doi.org/10.26302/SSHADE/EXPERIMENT_DT_20180710_002Schmitt, Bernard; Bollard, Philippe; Albert, Damien; Garenne, Alexandre; Bonal, Lydie; and the SSHADE partner's consortium (2018). SSHADE: 'Solid Spectroscopy Hosting Architecture of Databases and Expertise'. OSUG Data Center. Service/Database infrastructure. https://doi.org/10.26302/SSHADE
# ////
#---------
# energy(ev)	fluorescence_emission(au)
10229.600231	0.04156
10234.800232	0.04077
10239.900232	0.04009
10245.000232	0.03942
10250.000232	0.03875
10255.000232	0.03811
10260.000232	0.03753
10265.000232	0.03695
10270.000232	0.03640
10274.900232	0.03576
10280.000233	0.03523
10285.000233	0.03474
10290.000233	0.03437
10295.000233	0.03375
10300.100233	0.03317
10305.000233	0.03291
10310.000233	0.03237
10315.000233	0.03196
10320.100233	0.03162
10325.100234	0.03124
10330.000234	0.03084
10335.000234	0.03063
10340.000234	0.03047
10345.000234	0.03000
10350.100234	0.02993
10355.000234	0.02997
10360.000234	0.03034
10361.000234	0.03046
10362.000234	0.03066
10362.900234	0.03086
10363.900234	0.03102
10365.000234	0.03137
10365.900234	0.03193
10367.000235	0.03248
10368.000235	0.03324
10369.000235	0.03442
10370.000235	0.03607
10370.900235	0.03849
10372.000235	0.04386
10373.000235	0.05375
10374.000235	0.07284
10375.000235	0.11617
10376.000235	0.18933
10376.900235	0.22093
10378.000235	0.18580
10379.000235	0.15582
10380.000235	0.14595
10381.000235	0.14420
10382.000235	0.14046
10383.000235	0.13554
10384.000235	0.13070
10385.000235	0.12784
10386.000235	0.12609
10387.000235	0.12375
10388.000235	0.12038
10389.000235	0.11734
10390.000235	0.11442
10391.000235	0.11231
10392.000235	0.11071
10392.900235	0.10944
10393.900235	0.10859
10395.000235	0.10816
10396.000235	0.10796
10397.000235	0.10754
10397.900235	0.10730
10398.900235	0.10675
10399.900235	0.10639
10401.000235	0.10558
10402.000235	0.10489
10403.000235	0.10373
10404.000235	0.10267
10405.000235	0.10167
10406.000235	0.10105
10407.000235	0.10045
10408.000235	0.10036
10409.000235	0.10034
10410.000235	0.10075
10411.000236	0.10119
10412.000236	0.10182
10413.000236	0.10216
10414.000236	0.10267
10415.000236	0.10334
10416.000236	0.10393
10417.000236	0.10478
10418.000236	0.10543
10418.900236	0.10615
10421.000236	0.10766
10421.800236	0.10815
10424.800236	0.10979
10426.200236	0.11023
10427.700236	0.11035
10429.200236	0.11044
10430.800236	0.11046
10432.300236	0.11046
10433.900236	0.11018
10435.500236	0.11016
10437.100236	0.11040
10438.700236	0.11019
10440.400236	0.11013
10442.100236	0.11006
10443.800236	0.10984
10445.600236	0.10970
10447.300236	0.10927
10449.000236	0.10902
10450.800236	0.10895
10452.600236	0.10858
10454.400236	0.10841
10456.200237	0.10802
10458.000237	0.10782
10459.900237	0.10785
10461.800237	0.10760
10463.700237	0.10744
10465.600237	0.10704
10467.500237	0.10677
10469.500237	0.10666
10471.500237	0.10632
10473.500237	0.10605
10475.500237	0.10570
10477.500237	0.10528
10479.600237	0.10475
10481.700237	0.10430
10483.700237	0.10387
10485.900237	0.10342
10488.000237	0.10321
10490.100237	0.10287
10492.300237	0.10265
10494.400237	0.10241
10496.700237	0.10249
10498.900237	0.10257
10501.000238	0.10276
10503.400238	0.10291
10505.700238	0.10308
10508.000238	0.10348
10510.300238	0.10385
10512.600238	0.10395
10515.000238	0.10426
10517.300238	0.10453
10519.800238	0.10476
10522.100238	0.10469
10524.600238	0.10483
10527.100238	0.10453
10529.500238	0.10463
10532.000238	0.10465
10534.400238	0.10439
10537.000238	0.10413
10539.500238	0.10370
10542.100238	0.10351
10544.700239	0.10308
10547.300239	0.10271
10549.900239	0.10225
10552.500239	0.10173
10555.200239	0.10165
10557.800239	0.10106
10560.600239	0.10068
10563.300239	0.10035
10566.000239	0.10011
10568.700239	0.09978
10571.600239	0.09966
10574.300239	0.09954
10577.100239	0.09938
10580.000239	0.09928
10582.800239	0.09925
10585.600239	0.09930
10588.500240	0.09928
10591.400240	0.09937
10594.300240	0.09934
10597.300240	0.09950
10600.300240	0.09971
10603.200240	0.09959
10606.200240	0.09953
10609.200240	0.09949
10612.300240	0.09952
10615.300240	0.09933
10618.400240	0.09938
10621.500240	0.09915
10624.600240	0.09899
10627.700240	0.09881
10630.900240	0.09870
10634.000241	0.09838
10637.200241	0.09815
10640.400241	0.09785
10643.700241	0.09756
10646.900241	0.09722
10650.100241	0.09691
10653.400241	0.09663
10656.700241	0.09638
10660.100241	0.09618
10663.400241	0.09597
10666.700241	0.09572
10670.100241	0.09552
10673.500241	0.09527
10677.000242	0.09524
10680.300242	0.09519
10683.800242	0.09516
10687.200242	0.09506
10690.700242	0.09524
10694.200242	0.09509
10697.700242	0.09497
10701.300242	0.09484
10704.800242	0.09515
10708.400242	0.09481
10712.100242	0.09483
10715.600242	0.09482
10719.300242	0.09469
10722.900243	0.09460
10726.600243	0.09443
10730.300243	0.09419
10734.000243	0.09406
10737.700243	0.09386
10741.500243	0.09373
10745.300243	0.09353
10749.100243	0.09318
10752.900243	0.09302
10756.700243	0.09281
10760.500243	0.09271
10764.400244	0.09232
10768.200244	0.09246
10772.200244	0.09205
10776.100244	0.09186
10780.100244	0.09173
10784.000244	0.09152
10788.000244	0.09146
10791.900244	0.09145
10796.000244	0.09124
10800.000244	0.09116
10804.000244	0.09115
10808.200244	0.09096
10812.300245	0.09086
10816.300245	0.09073
10820.500245	0.09066
10824.600245	0.09052
10828.700245	0.09047
10833.000245	0.09036
10837.200245	0.09028
10841.400245	0.09022
10845.700245	0.09010
10849.900245	0.08992
10854.200246	0.08981
10858.500246	0.08965
10862.800246	0.08940
10867.100246	0.08935
10871.400246	0.08903
10875.900246	0.08889
10880.200246	0.08866
10884.600246	0.08834
10889.100246	0.08823
10893.500246	0.08813
10898.000247	0.08792
10902.500247	0.08774
10907.000247	0.08765
10911.500247	0.08739
10916.000247	0.08735
10920.600247	0.08724
10925.300247	0.08706
10929.700247	0.08692
10934.400247	0.08687
10939.000247	0.08664
10943.700248	0.08650
10948.400248	0.08638
10953.000248	0.08620
10957.800248	0.08611
10962.500248	0.08593
10967.300248	0.08584
10972.000248	0.08570
10976.800248	0.08563
10981.600248	0.08540
10986.400249	0.08534
10991.300249	0.08520
10996.100249	0.08502
11001.000249	0.08491
11006.000249	0.08469
11010.900249	0.08467
11015.700249	0.08451
11020.700249	0.08430
11025.700249	0.08417
11030.800250	0.08399
11035.700250	0.08387
11040.800250	0.08367
11045.800250	0.08358
11050.900250	0.08344
11055.900250	0.08336
11061.100250	0.08313
11066.200250	0.08307
11071.300250	0.08301
11076.500251	0.08285
11081.700251	0.08277
11086.900251	0.08274
11092.000251	0.08257
11097.400251	0.08253
11102.600251	0.08244
11107.900251	0.08365
11113.200251	0.08438
11118.500252	0.08396
11123.800252	0.08353
11129.100252	0.08351
11134.600252	0.08337
11139.900252	0.08331
11145.400252	0.08320
11150.800252	0.08309
11156.300252	0.08277
11161.700252	0.08282
11167.200253	0.08264
11172.700253	0.08249
11178.300253	0.08240
11183.800253	0.08241
11189.300253	0.08224
11195.000253	0.08210
11200.500253	0.08203
11206.100253	0.08195
11211.800254	0.08174
11217.500254	0.08166
11223.200254	0.08147
11228.800254	0.08135
11234.500254	0.08132
11240.200254	0.08124
11246.000254	0.08118
11251.800255	0.08106
11257.600255	0.08102
11263.400255	0.08095
11269.200255	0.08080
11275.000255	0.08070
11280.800255	0.08058
11286.800255	0.08064
11292.700255	0.08065
11298.500256	0.08054
11304.600256	0.08049
11310.500256	0.08034
11316.400256	0.08028
11322.500256	0.08029
11328.600256	0.08026
