# XDI/1.0
# Column.1: energy(ev)
# Column.2: transmission(au)
# Element.symbol: Mn
# Element.edge: K
# Mono.name: Si 2 2 0
# Mono.d_spacing: 1.92
# Beamline.name: FAME
# Sample.name: Mn metallic foil
# Sample.temperature: 293.0 +/- 2.0 K
# Sample.pressure: None
# Citation.doi: https://doi.org/10.26302/SSHADE/EXPERIMENT_DT_20180313_001
# Citation.comments: https://doi.org/10.26302/SSHADE/EXPERIMENT_DT_20180313_001Schmitt, Bernard; Bollard, Philippe; Albert, Damien; Garenne, Alexandre; Bonal, Lydie; and the SSHADE partner's consortium (2018). SSHADE: 'Solid Spectroscopy Hosting Architecture of Databases and Expertise'. OSUG Data Center. Service/Database infrastructure. https://doi.org/10.26302/SSHADE
# ////
#---------
# energy(ev)	transmission(au)
6454.270146	2.11779
6459.370146	2.11441
6464.560146	2.11220
6469.770146	2.10991
6474.840146	2.10498
6479.850147	2.10175
6484.800147	2.09741
6489.820147	2.09179
6494.800147	2.08604
6499.830147	2.08139
6504.810147	2.07159
6509.840147	2.06461
6514.810147	2.05908
6519.850147	2.05548
6520.200147	2.05539
6520.410148	2.05537
6520.700148	2.05514
6520.990148	2.05535
6521.310148	2.05463
6521.600148	2.05429
6521.910148	2.05386
6522.190148	2.05390
6522.500148	2.05471
6522.800148	2.05388
6523.120148	2.05356
6523.400148	2.05394
6523.710148	2.05406
6524.000148	2.05265
6524.310148	2.05313
6524.580148	2.05407
6524.910148	2.05440
6525.200148	2.05350
6525.520148	2.05345
6525.790148	2.05333
6526.110148	2.05261
6526.380148	2.05335
6526.710148	2.05295
6527.000148	2.05254
6527.320148	2.05291
6527.600148	2.05350
6527.920148	2.05275
6528.190148	2.05290
6528.500148	2.05324
6528.790148	2.05334
6529.120148	2.05391
6529.400148	2.05394
6529.710148	2.05417
6529.990148	2.05433
6530.310148	2.05446
6530.580148	2.05553
6530.920148	2.05647
6531.210148	2.05574
6531.520148	2.05609
6531.800148	2.05637
6532.120148	2.05760
6532.390148	2.05812
6532.700148	2.05868
6533.000148	2.05994
6533.320148	2.06022
6533.600148	2.06125
6533.910148	2.06260
6534.190148	2.06385
6534.500148	2.06510
6534.800148	2.06702
6535.130148	2.06926
6535.400148	2.07152
6535.710148	2.07492
6536.000148	2.07750
6536.310148	2.08179
6536.590148	2.08751
6536.910148	2.09382
6537.200148	2.10261
6537.510148	2.11504
6537.790148	2.13016
6538.110148	2.15709
6538.380148	2.19817
6538.700148	2.26707
6539.000148	2.35365
6539.320148	2.43765
6539.600148	2.50254
6539.910148	2.55532
6540.200148	2.59803
6540.500148	2.63423
6540.790148	2.66681
6541.120148	2.69897
6541.400148	2.72572
6541.710148	2.75107
6541.990148	2.77062
6542.310148	2.78453
6542.580148	2.79079
6542.910148	2.79565
6543.210148	2.80102
6543.520148	2.81092
6543.800148	2.82542
6544.110148	2.84317
6544.390148	2.86516
6544.710148	2.88600
6545.000148	2.90632
6545.320148	2.92924
6545.600148	2.95041
6545.910148	2.97558
6546.190148	3.00204
6546.500148	3.03143
6546.790148	3.06290
6547.120148	3.09585
6547.400148	3.12753
6547.720148	3.16398
6548.000148	3.19961
6548.310148	3.23862
6548.590148	3.27509
6548.910148	3.31760
6549.200148	3.35681
6549.510148	3.39918
6549.790148	3.43923
6550.100148	3.48346
6550.390148	3.52796
6550.700148	3.57395
6551.000148	3.62036
6551.320148	3.66674
6551.600148	3.70829
6551.910148	3.75247
6552.200148	3.79429
6552.500148	3.83790
6552.790148	3.88250
6553.120148	3.92427
6553.400148	3.96259
6553.710148	4.00328
6553.990148	4.03909
6554.310148	4.07550
6554.580148	4.10575
6554.900148	4.13325
6555.210148	4.15458
6555.520148	4.16873
6555.800148	4.17655
6556.110148	4.17851
6556.390148	4.17677
6556.710148	4.16250
6556.990148	4.14751
6557.310148	4.12857
6557.600148	4.10588
6557.910148	4.08014
6558.190148	4.05661
6558.500148	4.03134
6558.780148	4.00803
6559.120148	3.98833
6559.400148	3.97001
6559.710148	3.95506
6560.000148	3.94350
6560.310148	3.92941
6560.590148	3.92266
6560.900148	3.91790
6561.200148	3.91366
6561.510148	3.91170
6561.800148	3.90996
6562.110148	3.91158
6562.390148	3.91591
6562.700148	3.91891
6562.990148	3.92215
6563.320148	3.92631
6563.610148	3.93269
6563.910148	3.93816
6564.200148	3.94202
6564.510148	3.94779
6564.790149	3.95289
6565.110149	3.95742
6565.400149	3.96080
6565.710149	3.96553
6565.990149	3.96950
6566.300149	3.97041
6566.590149	3.97360
6566.900149	3.97433
6567.200149	3.97309
6567.520149	3.97481
6567.800149	3.97596
6568.110149	3.97357
6568.400149	3.97461
6568.700149	3.97166
6568.990149	3.97023
6569.320149	3.96847
6569.600149	3.96778
6569.910149	3.96606
6570.190149	3.96419
6570.510149	3.96380
6570.770149	3.96323
6571.110149	3.96109
6571.400149	3.95936
6571.720149	3.95926
6572.000149	3.95904
6572.310149	3.95859
6572.590149	3.95989
6572.900149	3.96115
6573.190149	3.96056
6573.520149	3.96253
6573.800149	3.96394
6574.110149	3.96617
6574.390149	3.96786
6574.710149	3.96928
6574.980149	3.97417
6575.320149	3.97671
6575.600149	3.98149
6575.920149	3.98638
6576.190149	3.99006
6576.520149	3.99296
6576.790149	4.00062
6577.100149	4.00333
6577.390149	4.00828
6577.720149	4.01180
6578.000149	4.01740
6578.310149	4.02287
6578.590149	4.02753
6578.900149	4.03409
6579.180149	4.03842
6579.520149	4.04285
6579.800149	4.04865
6580.120149	4.05296
6580.390149	4.05726
6580.710149	4.06285
6580.990149	4.06636
6581.310149	4.07005
6581.600149	4.07580
6581.910149	4.08004
6582.200149	4.08338
6582.500149	4.08719
6582.790149	4.08998
6583.090149	4.09407
6583.400149	4.09729
6583.720149	4.10008
6584.000149	4.10280
6584.310149	4.10435
6584.600149	4.10461
6584.910149	4.10655
6585.190149	4.10572
6585.510149	4.10534
6585.800149	4.10483
6586.110149	4.10259
6586.390149	4.10024
6586.700149	4.09776
6586.980149	4.09429
6587.300149	4.09031
6587.600149	4.08400
6588.910149	4.05677
6591.710149	3.99417
6593.220149	3.96950
6594.630149	3.95022
6596.080149	3.93150
6597.560149	3.91226
6599.060149	3.89773
6600.590149	3.88876
6602.110149	3.88303
6603.640149	3.88507
6605.290149	3.89189
6606.820149	3.89762
6608.440149	3.90694
6610.090150	3.91751
6611.720150	3.92639
6613.420150	3.93693
6615.080150	3.94380
6616.790150	3.95174
6618.510150	3.95399
6620.240150	3.95264
6622.050150	3.95217
6623.800150	3.94705
6625.620150	3.94195
6627.420150	3.93475
6629.270150	3.92877
6631.120150	3.91976
6632.980150	3.91378
6634.900150	3.90710
6636.780150	3.90382
6638.760150	3.89995
6640.670150	3.89444
6642.680150	3.88935
6644.640150	3.88110
6646.670150	3.87302
6648.670150	3.86347
6650.740150	3.85579
6652.780150	3.84578
6654.890151	3.83929
6656.970151	3.83318
6659.140151	3.82963
6661.220151	3.82905
6663.420151	3.82871
6665.560151	3.83094
6667.790151	3.83105
6669.970151	3.83456
6672.250151	3.83582
6674.470151	3.83714
6676.770151	3.83552
6679.040151	3.83440
6681.370151	3.83149
6683.680151	3.82747
6686.040151	3.82063
6688.400151	3.81455
6690.770151	3.80577
6693.200151	3.79554
6695.580151	3.78592
6698.080152	3.77586
6700.510152	3.76711
6702.990152	3.75732
6705.500152	3.74974
6708.000152	3.74090
6710.550152	3.73438
6713.100152	3.73051
6715.690152	3.72583
6718.280152	3.72288
6720.860152	3.72129
6723.520152	3.71846
6726.160152	3.71663
6728.840152	3.71687
6731.520152	3.71375
6734.180152	3.71215
6736.970152	3.70840
6739.700152	3.70433
6742.430153	3.69901
6745.280153	3.69363
6748.010153	3.68782
6750.850153	3.68119
6753.720153	3.67453
6756.550153	3.66661
6759.420153	3.65878
6762.320153	3.65127
6765.230153	3.64334
6768.150153	3.63603
6771.120153	3.62845
6774.090153	3.62195
6777.060153	3.61480
6780.100153	3.60823
6783.120153	3.60196
6786.130154	3.59435
6789.240154	3.58809
6792.320154	3.58245
6795.390154	3.57672
6798.540154	3.57120
6801.670154	3.56679
6804.840154	3.56273
6807.990154	3.55885
6811.220154	3.55456
6814.420154	3.55059
6817.650154	3.54692
6820.910154	3.54300
6824.190154	3.53722
6827.490154	3.53320
6830.770155	3.52603
6834.120155	3.51945
6837.470155	3.51273
6840.830155	3.50790
6844.210155	3.49943
6847.630155	3.49342
6851.050155	3.48648
6854.480155	3.47946
6857.950155	3.47195
6864.940155	3.46262
6868.440155	3.45177
6871.990155	3.44554
6875.520156	3.44060
6879.120156	3.43331
6882.710156	3.42971
6886.300156	3.42204
6889.950156	3.41658
6893.570156	3.41155
6897.250156	3.40693
6900.910156	3.40072
6904.610156	3.39626
6908.380156	3.39159
6912.090156	3.38601
6915.870156	3.38055
6919.710157	3.37567
6923.420157	3.37057
6927.290157	3.36413
6931.120157	3.35862
6934.970157	3.35212
6938.840157	3.34611
6942.760157	3.34027
6946.670157	3.33438
6950.580157	3.32803
6954.550157	3.32203
6958.520157	3.31544
6962.500158	3.30942
6966.510158	3.30308
6970.540158	3.29676
6974.570158	3.29078
6978.600158	3.28504
6982.650158	3.27913
6986.770158	3.27212
6990.930158	3.26640
6995.060158	3.26060
6999.230158	3.25507
7003.430158	3.24952
7007.610159	3.24370
7011.820159	3.23731
7016.040159	3.23235
7020.320159	3.22617
7024.580159	3.22092
7028.870159	3.21535
7033.170159	3.20926
7037.500159	3.20352
7041.860159	3.19857
7046.230159	3.19221
7050.610159	3.18647
7055.020160	3.18062
7059.440160	3.17473
7063.860160	3.16885
7068.320160	3.16256
7072.810160	3.15681
7077.310160	3.15047
7081.800160	3.14502
7086.340160	3.13918
7090.900160	3.13270
7095.450161	3.12690
7100.040161	3.12129
7104.690161	3.11532
7109.330161	3.10912
7114.000161	3.10424
7118.660161	3.09854
7123.350161	3.09409
7128.040161	3.09120
7132.770161	3.08754
7137.510161	3.08071
7142.290162	3.07417
7147.060162	3.06802
7151.860162	3.06171
7156.680162	3.05567
7161.520162	3.05016
7166.370162	3.04462
7171.240162	3.03899
7176.140162	3.03330
7181.060162	3.02750
7185.990163	3.02186
7190.940163	3.01594
7195.890163	3.00962
7200.900163	3.00355
7205.900163	2.99774
7210.930163	2.99165
7216.000163	2.98594
7221.020163	2.98188
7226.160163	2.97430
7231.210164	2.96839
7236.380164	2.96205
7241.500164	2.95653
7246.650164	2.95075
7251.840164	2.94474
7257.020164	2.93894
7262.250164	2.93335
7267.470164	2.92752
7272.730165	2.92194
7278.010165	2.91630
7283.310165	2.91072
7288.620165	2.90471
7293.940165	2.89916
7299.310165	2.89332
7304.660165	2.88761
7310.050165	2.88185
7315.470165	2.87650
7320.890166	2.87064
7326.340166	2.86456
7331.820166	2.85874
7337.290166	2.85315
7342.790166	2.84705
7348.310166	2.84101
7353.830166	2.83562
7359.380166	2.82921
7364.960167	2.82351
7370.540167	2.81807
7376.160167	2.81178
7381.790167	2.80583
7387.430167	2.80024
7393.100167	2.79458
7398.790167	2.78866
