# XDI/1.0
# Column.1: energy(ev)
# Column.2: fluorescence_emission(au)
# Element.symbol: Pd
# Element.edge: K
# Mono.name: Si 2 2 0
# Mono.d_spacing: 1.92
# Beamline.name: FAME
# Sample.name: Pellet of PdO mixed with cellulose
# Sample.temperature: 25.0 +/- -268.1 Â°C
# Sample.pressure: 1.0 bar
# Citation.doi:  https://doi.org/10.26302/SSHADE/EXPERIMENT_SOC_20170316_001
# Citation.comments: Ould-Chikh, Samy (2017): Pd K edge XAS fluorescence of 1 wt.% Pd/SiO2 at RT under He or H2 (after heating at 300C under H2). SSHADE/FAME (OSUG Data Center). Dataset/Spectral Data. https://doi.org/10.26302/SSHADE/EXPERIMENT_SOC_20170316_001Schmitt, Bernard; Bollard, Philippe; Albert, Damien; Garenne, Alexandre; Bonal, Lydie; and the SSHADE partner's consortium (2018). SSHADE: 'Solid Spectroscopy Hosting Architecture of Databases and Expertise'. OSUG Data Center. Service/Database infrastructure. https://doi.org/10.26302/SSHADE
# ////
#---------
# energy(ev)	fluorescence_emission(au)
24202.403000	0.49535
24210.003000	0.49568
24215.503000	0.49581
24220.503000	0.49587
24225.403000	0.49584
24230.603000	0.49617
24235.803000	0.49642
24240.803000	0.49620
24245.603000	0.49658
24250.603000	0.49675
24255.503000	0.49721
24260.603000	0.49698
24265.703000	0.49745
24270.803000	0.49783
24275.603000	0.49889
24280.603000	0.49922
24285.403000	0.49987
24290.203000	0.50118
24295.403000	0.50208
24300.103000	0.50340
24304.903000	0.50482
24309.603000	0.50684
24315.003000	0.50933
24320.103000	0.51176
24325.403000	0.51594
24330.603000	0.52181
24332.403000	0.52442
24333.403000	0.52570
24334.203000	0.52707
24335.203000	0.52908
24336.103000	0.53091
24337.103000	0.53330
24338.203000	0.53606
24339.103000	0.53845
24340.103000	0.54175
24341.103000	0.54538
24342.103000	0.54953
24343.103000	0.55405
24344.103000	0.55988
24345.003000	0.56580
24346.103000	0.57419
24347.103000	0.58401
24348.103000	0.59679
24349.003000	0.61070
24350.003000	0.63115
24351.003000	0.65424
24352.003000	0.68323
24353.103000	0.72357
24354.003000	0.76381
24355.003000	0.80821
24356.003000	0.86067
24357.103000	0.91158
24358.103000	0.95900
24359.103000	0.99772
24360.103000	1.03791
24361.103000	1.07857
24362.103000	1.12934
24363.103000	1.18764
24364.103000	1.26132
24365.103000	1.33328
24366.103000	1.40311
24367.103000	1.46093
24368.103000	1.51096
24369.103000	1.54076
24370.103000	1.55226
24371.103000	1.54891
24372.103000	1.54212
24373.003000	1.53118
24374.103000	1.52772
24375.003000	1.52166
24376.003000	1.52332
24377.103000	1.52112
24378.103000	1.51833
24379.103000	1.51220
24380.103000	1.50550
24381.003000	1.49613
24382.003000	1.48658
24383.003000	1.47789
24384.003000	1.46891
24385.003000	1.46073
24386.103000	1.44889
24387.103000	1.43773
24388.103000	1.42577
24389.103000	1.41171
24390.103000	1.40270
24391.303000	1.39304
24393.703000	1.37488
24395.203000	1.36754
24396.403000	1.36025
24397.703000	1.35897
24399.103000	1.35571
24400.403000	1.35405
24401.703000	1.35310
24403.203000	1.35731
24404.603000	1.35790
24406.003000	1.36144
24407.403000	1.36785
24408.903000	1.37223
24410.403000	1.38072
24411.903000	1.38782
24413.303000	1.39968
24414.903000	1.40769
24416.503000	1.41818
24418.003000	1.43167
24419.603000	1.43757
24421.403000	1.45046
24423.003000	1.46066
24424.703000	1.47038
24426.303000	1.47656
24428.003000	1.48720
24429.703000	1.48677
24431.403000	1.48074
24433.203000	1.47324
24434.903000	1.46537
24436.703000	1.45391
24438.603000	1.44625
24440.403000	1.43979
24442.203000	1.44028
24444.003000	1.44239
24445.903000	1.44468
24447.803000	1.45165
24449.803000	1.45522
24451.803000	1.45349
24453.803000	1.45176
24455.803000	1.44662
24457.703000	1.43881
24459.703000	1.43272
24461.703000	1.42760
24463.803000	1.42152
24465.903000	1.41833
24467.903000	1.41721
24470.103000	1.41453
24472.203000	1.41232
24474.303000	1.41128
24476.403000	1.40960
24478.503000	1.40477
24480.703000	1.40221
24483.103000	1.40156
24485.403000	1.40490
24487.603000	1.40734
24489.903000	1.41301
24492.103000	1.42043
24494.403000	1.42728
24496.803000	1.43362
24499.203000	1.43580
24501.503000	1.43845
24503.903000	1.43991
24506.303000	1.43621
24508.803000	1.43616
24511.103000	1.43663
24513.603000	1.43296
24516.203000	1.43231
24518.803000	1.43197
24521.203000	1.43115
24523.803000	1.43019
24526.403000	1.42669
24528.903000	1.42722
24531.503000	1.42782
24534.103000	1.42413
24536.703000	1.42522
24539.303000	1.42334
24541.903000	1.42188
24544.703000	1.42346
24547.403000	1.42211
24550.303000	1.42349
24553.003000	1.42597
24555.803000	1.42701
24558.503000	1.42563
24561.203000	1.42192
24564.103000	1.41884
24567.003000	1.41180
24569.903000	1.40651
24572.803000	1.39616
24575.703000	1.38747
24578.603000	1.38226
24581.603000	1.37801
24584.703000	1.37626
24587.703000	1.38009
24590.603000	1.38372
24593.503000	1.39123
24596.503000	1.39715
24599.603000	1.40238
24602.603000	1.40777
24605.703000	1.41099
24608.803000	1.41367
24612.003000	1.41636
24615.303000	1.41670
24618.403000	1.41657
24621.603000	1.41483
24624.803000	1.41418
24627.903000	1.40908
24631.303000	1.40265
24634.503000	1.40047
24637.703000	1.39533
24641.003000	1.39082
24644.403000	1.38894
24647.703000	1.38424
24651.303000	1.38007
24654.603000	1.37986
24657.803000	1.37933
24661.203000	1.38556
24664.703000	1.38814
24668.003000	1.39133
24671.503000	1.39415
24675.003000	1.39555
24678.603000	1.39273
24682.203000	1.39538
24685.703000	1.39315
24689.203000	1.39360
24692.703000	1.39161
24696.403000	1.38930
24700.103000	1.38613
24703.603000	1.38399
24707.303000	1.37828
24711.103000	1.37374
24714.903000	1.37351
24718.503000	1.37355
24722.203000	1.37092
24725.803000	1.37062
24729.703000	1.37022
24733.403000	1.37039
24737.103000	1.37296
24741.003000	1.37340
24744.903000	1.37560
24748.903000	1.37795
24752.703000	1.38097
24756.503000	1.38445
24760.403000	1.38820
24764.503000	1.38722
24768.403000	1.38749
24772.303000	1.38585
24776.303000	1.38427
24780.603000	1.38013
24784.603000	1.37561
24788.503000	1.37352
24792.403000	1.37100
24796.603000	1.37148
24800.603000	1.37092
24804.803000	1.37124
24809.003000	1.36929
24813.303000	1.36987
24817.403000	1.36690
24821.503000	1.36652
24825.803000	1.36710
24830.003000	1.36847
24834.303000	1.36919
24838.503000	1.36848
24842.903000	1.36822
24847.403000	1.36715
24851.603000	1.36906
24855.803000	1.36589
24860.203000	1.36700
24864.503000	1.36497
24868.903000	1.36469
24873.403000	1.36445
24878.003000	1.36443
24882.503000	1.36370
24886.903000	1.36310
24891.403000	1.36211
24895.903000	1.36255
24900.503000	1.36170
24904.903000	1.36214
24909.603000	1.36059
24914.503000	1.35870
24918.903000	1.36212
24923.403000	1.36267
24928.103000	1.36125
24932.703000	1.36138
24937.403000	1.35984
24942.203000	1.35913
24947.003000	1.35580
24951.703000	1.35374
24956.403000	1.35135
24961.303000	1.35054
24966.103000	1.35115
24970.803000	1.35157
24975.703000	1.35209
24980.903000	1.35148
24985.603000	1.34984
24990.303000	1.35211
24995.203000	1.35013
25000.103000	1.34864
25005.003000	1.35005
25010.103000	1.34849
25015.303000	1.35030
25020.203000	1.34825
25025.203000	1.34912
25030.303000	1.34857
25035.303000	1.34789
25040.303000	1.34750
25045.703000	1.34551
25050.903000	1.34507
25055.803000	1.34520
25061.003000	1.34276
25066.103000	1.34322
25071.203000	1.34355
25076.503000	1.34307
25082.003000	1.34390
25087.103000	1.34226
25092.303000	1.34440
25097.803000	1.34392
25103.003000	1.34204
25108.303000	1.34443
25113.903000	1.34369
25119.303000	1.34347
25124.403000	1.34372
25129.803000	1.34183
25135.203000	1.34266
25140.603000	1.34024
25146.203000	1.33877
25151.803000	1.33909
25157.203000	1.33595
25162.803000	1.33673
25168.203000	1.33484
25173.703000	1.33350
25179.503000	1.33141
25185.303000	1.33187
25190.703000	1.32993
25196.203000	1.33178
25201.803000	1.32914
