# XDI/1.0
# Column.1: energy(ev)
# Column.2: fluorescence_emission(au)
# Element.symbol: Y
# Element.edge: K
# Mono.name: Si 2 2 0
# Mono.d_spacing: 1.92
# Beamline.name: FAME
# Sample.name: Yttrium(III) solution at hydrothermal conditions: Y 0.012m Cl 2.52m Na 1.99m HCl 0.5m
# Sample.temperature: 30.0 +/- 5.0 °C
# Sample.pressure: 800.0 bar
# Citation.doi:  https://doi.org/10.26302/SSHADE/EXPERIMENT_DT_20170222_001
# Citation.comments: Louvel, Marion; Testemale, Denis; Etschmann, Barbara; Brugger, Joel (2017): Y K edge XAS fluorescence of yttrium(III) solution at hydrothermal conditions: 800 bar 30 to 450°C. SSHADE/FAME (OSUG Data Center). Dataset/Spectral Data. https://doi.org/10.26302/SSHADE/EXPERIMENT_DT_20170222_001Schmitt, Bernard; Bollard, Philippe; Albert, Damien; Garenne, Alexandre; Bonal, Lydie; and the SSHADE partner's consortium (2018). SSHADE: 'Solid Spectroscopy Hosting Architecture of Databases and Expertise'. OSUG Data Center. Service/Database infrastructure. https://doi.org/10.26302/SSHADE
# ////
#---------
# energy(ev)	fluorescence_emission(au)
16850.600381	0.00115
16858.600381	0.00076
16864.400381	0.00083
16869.400382	0.00027
16874.600382	-0.00003
16879.600382	-0.00006
16884.400382	-0.00017
16889.500382	-0.00025
16892.600382	-0.00018
16894.500382	-0.00036
16897.300382	-0.00029
16908.100382	-0.00054
16914.600383	-0.00035
16919.800383	-0.00029
16924.700383	-0.00029
16929.700383	-0.00048
16934.700383	-0.00064
16939.800383	-0.00043
16944.700383	-0.00012
16949.700383	-0.00001
16954.800384	0.00034
16959.700384	0.00085
16964.700384	0.00103
16969.900384	0.00144
16974.900384	0.00216
16979.700384	0.00269
16984.800384	0.00395
16989.800384	0.00489
16994.700384	0.00622
17000.000385	0.00819
17001.100385	0.00863
17001.600385	0.00878
17002.300385	0.00870
17002.900385	0.00898
17003.700385	0.00981
17004.300385	0.00991
17005.000385	0.01033
17005.700385	0.01096
17006.400385	0.01119
17007.100385	0.01161
17007.800385	0.01209
17008.500385	0.01274
17009.200385	0.01354
17009.900385	0.01410
17010.600385	0.01430
17011.300385	0.01511
17012.000385	0.01542
17012.700385	0.01629
17013.400385	0.01721
17014.100385	0.01757
17014.800385	0.01854
17015.500385	0.01952
17016.200385	0.01996
17016.900385	0.02114
17017.600385	0.02229
17018.300385	0.02309
17019.000385	0.02432
17019.700385	0.02552
17020.400385	0.02723
17021.100385	0.02875
17021.800385	0.03035
17022.500385	0.03227
17023.200385	0.03439
17023.900385	0.03657
17024.600385	0.03912
17025.400385	0.04164
17026.100385	0.04489
17026.700385	0.04746
17027.500385	0.05121
17028.100385	0.05494
17028.900385	0.06021
17029.500385	0.06582
17030.200385	0.07331
17030.900385	0.08284
17031.600385	0.09367
17032.300385	0.10486
17033.000385	0.11899
17033.800385	0.13930
17034.400385	0.15832
17035.100385	0.18195
17035.800385	0.21055
17036.500385	0.24501
17037.200385	0.28776
17037.900385	0.33907
17038.600385	0.39757
17039.300385	0.46250
17040.000385	0.53788
17040.700385	0.61526
17041.400385	0.71208
17042.200386	0.80926
17042.900386	0.90491
17043.500386	0.99892
17044.200386	1.09947
17044.900386	1.19898
17045.600386	1.28715
17046.300386	1.36602
17047.000386	1.43176
17047.700386	1.48508
17048.400386	1.51763
17049.100386	1.53348
17049.800386	1.53296
17050.500386	1.51767
17051.200386	1.49193
17051.900386	1.45269
17052.600386	1.41183
17053.300386	1.36798
17054.000386	1.32547
17054.700386	1.28928
17055.400386	1.24855
17056.200386	1.21925
17056.900386	1.18944
17057.600386	1.16354
17058.300386	1.13735
17059.000386	1.11466
17059.700386	1.09096
17060.300386	1.07319
17061.000386	1.05249
17061.700386	1.03516
17062.400386	1.01842
17063.100386	1.00173
17063.900386	0.98580
17064.500386	0.97417
17065.200386	0.96163
17065.900386	0.95175
17066.600386	0.94127
17067.300386	0.93189
17068.000386	0.92367
17068.700386	0.91746
17069.400386	0.91183
17070.100386	0.90745
17070.800386	0.90575
17071.500386	0.89935
17072.300386	0.89705
17073.000386	0.89612
17073.600386	0.89579
17074.300386	0.89454
17075.000386	0.89637
17075.700386	0.89423
17076.400386	0.89560
17077.100386	0.89732
17077.800386	0.90091
17078.500386	0.90513
17079.200386	0.91449
17080.000386	0.92309
17080.600386	0.93244
17081.300386	0.94343
17082.000386	0.95271
17082.700386	0.96516
17083.400386	0.97773
17084.100386	0.99075
17084.800386	1.00255
17085.500386	1.01501
17086.200387	1.02737
17086.900387	1.03857
17087.600387	1.05058
17088.400387	1.06253
17089.100387	1.07213
17089.800387	1.08217
17090.400387	1.08840
17091.100387	1.09929
17091.800387	1.10533
17092.500387	1.11191
17093.200387	1.11732
17093.900387	1.12180
17094.600387	1.12562
17096.400387	1.13233
17097.600387	1.13164
17100.300387	1.12493
17102.200387	1.11512
17103.800387	1.10702
17105.400387	1.09461
17106.900387	1.08202
17108.500387	1.06800
17110.200387	1.05302
17111.800387	1.03774
17113.400387	1.02294
17115.100387	1.00695
17116.900387	0.99454
17118.700387	0.98184
17120.500387	0.97393
17122.200387	0.96710
17124.000387	0.96123
17125.800387	0.95934
17127.600387	0.95973
17129.400387	0.96336
17131.200388	0.96709
17133.200388	0.97265
17135.200388	0.97880
17137.100388	0.98511
17139.000388	0.99218
17140.900388	0.99939
17142.900388	1.00668
17144.800388	1.01209
17146.900388	1.01791
17149.000388	1.02349
17151.100388	1.02766
17153.100388	1.03066
17155.200388	1.03392
17157.300388	1.03444
17159.400388	1.03511
17161.500388	1.03541
17163.600388	1.03436
17166.000388	1.03158
17168.200388	1.02834
17170.300388	1.02593
17172.600388	1.02042
17174.800389	1.01647
17177.100389	1.01200
17179.400389	1.00806
17181.900389	1.00306
17184.200389	0.99859
17186.500389	0.99545
17188.800389	0.99186
17191.200389	0.98790
17193.500389	0.98820
17196.000389	0.98558
17198.600389	0.98358
17201.000389	0.98435
17203.500389	0.98392
17206.000389	0.98249
17208.500389	0.98443
17211.000389	0.98689
17213.700389	0.98835
17216.200389	0.99013
17218.800390	0.99068
17221.400390	0.99410
17224.000390	0.99658
17226.600390	0.99939
17229.500390	1.00257
17232.100390	1.00801
17234.800390	1.01059
17237.500390	1.01221
17240.200390	1.01183
17243.100390	1.01222
17246.000390	1.01202
17248.700390	1.01132
17251.500390	1.00985
17254.300390	1.00856
17257.100390	1.00756
17260.100390	1.00647
17263.100391	1.00545
17265.900391	1.00374
17268.900391	1.00266
17271.800391	1.00149
17274.800391	1.00087
17277.900391	0.99891
17280.900391	0.99733
17283.900391	0.99614
17286.900391	0.99630
17289.900391	0.99514
17293.200391	0.99512
17296.200391	0.99395
17299.300391	0.99425
17302.400391	0.99438
17305.600391	0.99510
17309.000392	0.99516
17312.100392	0.99604
17315.300392	0.99631
17318.400392	0.99781
17321.700392	0.99978
17325.200392	0.99933
17328.300392	1.00059
17331.700392	1.00169
17335.000392	1.00219
17338.300392	1.00186
17341.900392	1.00234
17345.200392	1.00300
17348.500392	1.00178
17351.900393	1.00375
17355.400393	1.00108
17359.000393	1.00151
17362.400393	1.00085
17365.900393	0.99890
17369.400393	0.99900
17373.100393	0.99936
17376.600393	0.99796
17380.100393	0.99804
17383.600393	0.99903
17387.300393	0.99662
17391.100393	0.99689
17394.600393	0.99607
17398.300394	0.99724
17402.000394	0.99741
17405.900394	0.99737
17409.500394	0.99699
17413.200394	0.99813
17416.800394	0.99760
17420.800394	0.99610
17424.600394	0.99789
17428.400394	0.99846
17432.200394	0.99876
17436.200394	0.99855
17440.100395	0.99928
17443.900395	0.99827
17447.700395	0.99918
17451.700395	0.99947
17455.800395	1.00021
17459.700395	1.00031
17463.700395	1.00066
17467.700395	1.00085
17471.900395	1.00050
17475.900395	1.00161
17479.800395	1.00102
17483.900396	1.00139
17488.200396	0.99986
17492.300396	0.99923
17496.300396	0.99936
17500.600396	0.99935
17504.900396	0.99941
17509.000396	0.99987
17513.000396	0.99926
17517.400396	0.99882
17521.700396	0.99852
17525.900396	0.99930
17530.100397	0.99883
17534.700397	0.99852
17539.000397	0.99958
17543.300397	0.99976
17547.500397	0.99882
17552.100397	0.99872
17556.400397	0.99898
17560.800397	0.99905
17565.300397	1.00023
17569.900397	0.99881
17574.400398	0.99875
17578.700398	0.99900
17583.300398	0.99921
17587.900398	0.99959
17592.300398	0.99909
17596.900398	1.00176
17601.700398	1.00055
17606.300398	1.00090
17610.700398	1.00061
17615.500398	1.00123
17620.200399	1.00052
17624.900399	1.00087
17629.400399	1.00045
17634.500399	1.00029
17639.200399	0.99971
17643.700399	0.99998
17648.600399	1.00055
17653.500399	0.99992
17658.300399	0.99860
17663.000400	0.99882
17668.200400	0.99907
17672.900400	1.00031
17677.700400	0.99902
17682.700400	0.99996
17687.700400	1.00073
17692.500400	0.99955
17697.500400	1.00025
17702.700400	1.00020
17707.600401	1.00077
17712.400401	1.00006
17717.800401	1.00055
17722.700401	1.00097
17727.700401	1.00189
17733.100401	1.00087
17738.200401	1.00116
17743.200401	1.00175
17748.300401	1.00162
17753.600402	1.00172
17758.800402	1.00088
17763.900402	1.00196
17769.400402	1.00180
17774.600402	1.00192
17779.600402	1.00269
