# XDI/1.0
# Column.1: energy(ev)
# Column.2: fluorescence_emission(au)
# Element.symbol: Y
# Element.edge: K
# Mono.name: Si 2 2 0
# Mono.d_spacing: 1.92
# Beamline.name: FAME
# Sample.name: Yttrium(III) solution at hydrothermal conditions: Y 0.92m Cl 2.76m
# Sample.temperature: 400.0 +/- 5.0 °C
# Sample.pressure: 800.0 bar
# Citation.doi:  https://doi.org/10.26302/SSHADE/EXPERIMENT_DT_20170222_001
# Citation.comments: Louvel, Marion; Testemale, Denis; Etschmann, Barbara; Brugger, Joel (2017): Y K edge XAS fluorescence of yttrium(III) solution at hydrothermal conditions: 800 bar 30 to 450°C. SSHADE/FAME (OSUG Data Center). Dataset/Spectral Data. https://doi.org/10.26302/SSHADE/EXPERIMENT_DT_20170222_001Schmitt, Bernard; Bollard, Philippe; Albert, Damien; Garenne, Alexandre; Bonal, Lydie; and the SSHADE partner's consortium (2018). SSHADE: 'Solid Spectroscopy Hosting Architecture of Databases and Expertise'. OSUG Data Center. Service/Database infrastructure. https://doi.org/10.26302/SSHADE
# ////
#---------
# energy(ev)	fluorescence_emission(au)
16849.000381	-0.73938
16854.200381	-0.74032
16859.300381	-0.74147
16864.400381	-0.74270
16869.400382	-0.74329
16874.500382	-0.74447
16879.400382	-0.74528
16881.800382	-0.74567
16883.200382	-0.74590
16888.700382	-0.74680
16898.700382	-0.74873
16904.700382	-0.75028
16909.800383	-0.75139
16914.700383	-0.75180
16919.800383	-0.75287
16924.700383	-0.75345
16929.600383	-0.75425
16934.600383	-0.75499
16939.800383	-0.75570
16944.800383	-0.75572
16949.700383	-0.75613
16954.800384	-0.75681
16959.700384	-0.75685
16964.700384	-0.75707
16969.900384	-0.75678
16974.900384	-0.75671
16979.700384	-0.75605
16984.800384	-0.75527
16989.800384	-0.75368
16994.800384	-0.75129
17000.000385	-0.74836
17001.100385	-0.74769
17001.600385	-0.74727
17002.300385	-0.74692
17003.000385	-0.74625
17003.600385	-0.74530
17004.300385	-0.74458
17005.000385	-0.74377
17005.700385	-0.74331
17006.400385	-0.74217
17007.100385	-0.74133
17007.800385	-0.74043
17008.500385	-0.73974
17009.200385	-0.73842
17009.900385	-0.73740
17010.600385	-0.73577
17011.300385	-0.73437
17012.000385	-0.73357
17012.700385	-0.73210
17013.400385	-0.73036
17014.100385	-0.72892
17014.800385	-0.72720
17015.500385	-0.72448
17016.200385	-0.72320
17016.900385	-0.72111
17017.600385	-0.71886
17018.300385	-0.71652
17019.000385	-0.71367
17019.700385	-0.71059
17020.400385	-0.70724
17021.100385	-0.70394
17021.800385	-0.69993
17022.500385	-0.69542
17023.200385	-0.69064
17023.900385	-0.68535
17024.600385	-0.67958
17025.400385	-0.67270
17026.000385	-0.66648
17026.800385	-0.65723
17027.500385	-0.64752
17028.100385	-0.63725
17028.900385	-0.62145
17029.500385	-0.60546
17030.200385	-0.58314
17030.900385	-0.55666
17031.600385	-0.52677
17032.400385	-0.48253
17033.000385	-0.45066
17033.700385	-0.40099
17034.400385	-0.34151
17035.100385	-0.27339
17035.800385	-0.19385
17036.500385	-0.10167
17037.200385	0.00826
17037.900385	0.13650
17038.600385	0.27783
17039.300385	0.44604
17040.000385	0.63940
17040.700385	0.83962
17041.400385	1.08485
17042.200386	1.34779
17042.900386	1.58972
17043.500386	1.82236
17044.200386	2.04169
17044.900386	2.23082
17045.600386	2.37879
17046.300386	2.49934
17047.000386	2.57150
17047.700386	2.60737
17048.400386	2.61034
17049.100386	2.59091
17049.800386	2.54977
17050.500386	2.49676
17051.200386	2.44022
17051.900386	2.37893
17052.600386	2.31836
17053.300386	2.25925
17054.000386	2.20351
17054.700386	2.15883
17055.400386	2.10985
17056.100386	2.06915
17056.900386	2.02256
17057.600386	1.98418
17058.300386	1.94680
17059.000386	1.91461
17059.600386	1.88583
17060.300386	1.85297
17061.000386	1.82109
17061.700386	1.79415
17062.400386	1.76772
17063.200386	1.74178
17063.800386	1.72272
17064.500386	1.70152
17065.200386	1.68115
17065.900386	1.66366
17066.600386	1.64589
17067.300386	1.63005
17068.000386	1.61432
17068.700386	1.60035
17069.400386	1.58760
17070.100386	1.57384
17070.800386	1.56238
17071.600386	1.54976
17072.300386	1.54038
17073.000386	1.52961
17073.600386	1.51959
17074.300386	1.50998
17075.000386	1.50159
17075.700386	1.49476
17076.400386	1.48984
17077.100386	1.48733
17077.800386	1.48783
17078.500386	1.49204
17079.200386	1.49896
17079.900386	1.50779
17080.600386	1.51943
17081.300386	1.53467
17082.000386	1.54851
17082.700386	1.56773
17083.400386	1.58551
17084.100386	1.60716
17084.800386	1.62736
17085.500386	1.64798
17086.200387	1.66688
17086.900387	1.68737
17087.700387	1.71010
17088.400387	1.72907
17089.100387	1.74663
17089.800387	1.76584
17090.400387	1.77842
17091.100387	1.79541
17091.800387	1.81112
17092.500387	1.82597
17093.200387	1.83805
17093.900387	1.85040
17094.600387	1.85626
17096.500387	1.87621
17097.700387	1.88180
17100.300387	1.87648
17102.200387	1.86262
17103.900387	1.84457
17105.400387	1.82507
17106.900387	1.80225
17108.500387	1.77629
17110.200387	1.74769
17111.800387	1.71867
17113.500387	1.69024
17115.100387	1.66331
17116.900387	1.63699
17118.700387	1.61468
17120.500387	1.59685
17122.200387	1.58254
17124.000387	1.57133
17125.800387	1.56401
17127.600387	1.56031
17129.400387	1.56035
17131.200388	1.56369
17133.200388	1.56976
17135.200388	1.57859
17137.100388	1.58811
17139.000388	1.60015
17140.900388	1.61169
17142.900388	1.62385
17144.900388	1.63528
17146.900388	1.64563
17149.000388	1.65387
17151.100388	1.66209
17153.200388	1.66786
17155.200388	1.67097
17157.300388	1.67220
17159.400388	1.67093
17161.500388	1.66874
17163.600388	1.66435
17166.000388	1.65640
17168.200388	1.64836
17170.300388	1.64010
17172.600388	1.62986
17174.800389	1.61990
17177.100389	1.60894
17179.400389	1.59834
17181.900389	1.58934
17184.200389	1.58115
17186.500389	1.57437
17188.900389	1.56705
17191.200389	1.56277
17193.600389	1.55861
17196.000389	1.55584
17198.600389	1.55444
17201.000389	1.55359
17203.500389	1.55410
17206.000389	1.55500
17208.500389	1.55657
17211.100389	1.55996
17213.700389	1.56198
17216.300389	1.56586
17218.900390	1.56860
17221.400390	1.57285
17224.000390	1.57699
17226.600390	1.58269
17229.500390	1.58763
17232.200390	1.59194
17234.800390	1.59351
17237.500390	1.59278
17240.200390	1.59011
17243.100390	1.58563
17246.000390	1.58136
17248.700390	1.57872
17251.500390	1.57521
17254.300390	1.57200
17257.100390	1.56801
17260.200390	1.56412
17263.100391	1.56185
17265.900391	1.55839
17268.900391	1.55569
17271.800391	1.55350
17274.800391	1.55248
17278.000391	1.55048
17280.900391	1.54845
17283.900391	1.54567
17286.900391	1.54469
17289.900391	1.54377
17293.200391	1.54270
17296.300391	1.54259
17299.300391	1.54167
17302.400391	1.54161
17305.600391	1.54204
17309.000392	1.54091
17312.100392	1.53927
17315.300392	1.53916
17318.400392	1.53849
17321.700392	1.53808
17325.200392	1.53825
17328.400392	1.53768
17331.700392	1.53718
17334.900392	1.53605
17338.400392	1.53480
17341.900392	1.53350
17345.100392	1.53153
17348.600392	1.53014
17351.800393	1.52786
17355.400393	1.52557
17359.000393	1.52277
17362.400393	1.52079
17365.800393	1.51930
17369.400393	1.51766
17373.100393	1.51622
17376.600393	1.51462
17380.200393	1.51281
17383.600393	1.51165
17387.300393	1.51004
17391.100393	1.50860
17394.600393	1.50761
17398.300394	1.50611
17401.900394	1.50490
17405.900394	1.50374
17409.500394	1.50293
17413.300394	1.50113
17416.900394	1.49965
17420.800394	1.49823
17424.600394	1.49616
17428.400394	1.49455
17432.200394	1.49250
17436.200394	1.49040
17440.100395	1.48872
17444.000395	1.48674
17447.700395	1.48594
17451.700395	1.48352
17455.800395	1.48147
17459.700395	1.47915
17463.600395	1.47704
17467.700395	1.47406
17471.900395	1.47215
17475.900395	1.47023
17479.800395	1.46825
17483.900396	1.46619
17488.200396	1.46460
17492.200396	1.46308
17496.300396	1.46134
17500.600396	1.45866
17504.900396	1.45592
17509.000396	1.45372
17513.100396	1.45144
17517.400396	1.44935
17521.700396	1.44678
17526.000396	1.44480
17530.100397	1.44267
17534.700397	1.44049
17539.000397	1.43854
17543.300397	1.43613
17547.500397	1.43455
17552.100397	1.43223
17556.500397	1.42963
17560.800397	1.42768
17565.300397	1.42559
17569.900397	1.42285
17574.400398	1.42070
17578.700398	1.41829
17583.300398	1.41590
17587.900398	1.41365
17592.400398	1.41175
17596.800398	1.41014
17601.700398	1.40735
17606.300398	1.40545
17610.800398	1.40328
17615.500398	1.40049
17620.200399	1.39880
17624.900399	1.39586
17629.400399	1.39341
17634.500399	1.39160
17639.100399	1.38894
17643.800399	1.38653
17648.600399	1.38382
17653.500399	1.38133
17658.300399	1.37949
17663.000400	1.37647
17668.100400	1.37438
17673.000400	1.37180
17677.600400	1.36967
17682.700400	1.36657
17687.700400	1.36427
17692.500400	1.36264
17697.500400	1.36018
17702.700400	1.35804
17707.600401	1.35559
17712.500401	1.35345
17717.700401	1.35085
17722.700401	1.34889
17727.700401	1.34597
17733.000401	1.34345
17738.200401	1.34111
17743.200401	1.33875
17748.300401	1.33648
17753.600402	1.33399
17758.700402	1.33182
17763.900402	1.32923
17769.400402	1.32657
17774.600402	1.32435
17779.600402	1.32201
