# XDI/1.0
# Column.1: energy(ev)
# Column.2: fluorescence_emission(au)
# Element.symbol: Y
# Element.edge: K
# Mono.name: Si 2 2 0
# Mono.d_spacing: 1.92
# Beamline.name: FAME
# Sample.name: Yttrium(III) solution at hydrothermal conditions: Y 0.01m Cl 0.03m HCl 0.002m
# Sample.temperature: 200.0 +/- 5.0 °C
# Sample.pressure: 800.0 bar
# Citation.doi:  https://doi.org/10.26302/SSHADE/EXPERIMENT_DT_20170222_001
# Citation.comments: Louvel, Marion; Testemale, Denis; Etschmann, Barbara; Brugger, Joel (2017): Y K edge XAS fluorescence of yttrium(III) solution at hydrothermal conditions: 800 bar 30 to 450°C. SSHADE/FAME (OSUG Data Center). Dataset/Spectral Data. https://doi.org/10.26302/SSHADE/EXPERIMENT_DT_20170222_001Schmitt, Bernard; Bollard, Philippe; Albert, Damien; Garenne, Alexandre; Bonal, Lydie; and the SSHADE partner's consortium (2018). SSHADE: 'Solid Spectroscopy Hosting Architecture of Databases and Expertise'. OSUG Data Center. Service/Database infrastructure. https://doi.org/10.26302/SSHADE
# ////
#---------
# energy(ev)	fluorescence_emission(au)
16847.700381	0.01475
16853.900381	0.01461
16859.200381	0.01454
16864.400381	0.01449
16869.300382	0.01439
16874.400382	0.01427
16876.700382	0.01423
16878.100382	0.01421
16883.900382	0.01411
16893.700382	0.01403
16899.600382	0.01399
16904.700382	0.01405
16909.700383	0.01402
16914.700383	0.01391
16919.800383	0.01399
16924.700383	0.01396
16929.600383	0.01398
16934.700383	0.01391
16939.800383	0.01395
16944.800383	0.01415
16949.700383	0.01404
16954.800384	0.01420
16959.700384	0.01429
16964.700384	0.01460
16969.900384	0.01468
16974.800384	0.01494
16979.700384	0.01522
16984.900384	0.01570
16989.800384	0.01621
16994.800384	0.01674
17000.000385	0.01762
17001.200385	0.01782
17001.700385	0.01792
17002.300385	0.01808
17003.000385	0.01830
17003.600385	0.01828
17004.300385	0.01870
17005.000385	0.01879
17005.700385	0.01893
17006.400385	0.01923
17007.100385	0.01935
17007.800385	0.01969
17008.500385	0.01976
17009.200385	0.02007
17009.900385	0.02026
17010.600385	0.02068
17011.300385	0.02078
17012.000385	0.02113
17012.800385	0.02134
17013.400385	0.02175
17014.100385	0.02221
17014.800385	0.02257
17015.500385	0.02283
17016.200385	0.02320
17016.900385	0.02358
17017.600385	0.02423
17018.300385	0.02478
17019.000385	0.02533
17019.700385	0.02596
17020.400385	0.02652
17021.100385	0.02732
17021.800385	0.02790
17022.500385	0.02879
17023.200385	0.02975
17023.900385	0.03080
17024.600385	0.03199
17025.400385	0.03332
17026.000385	0.03439
17026.800385	0.03612
17027.500385	0.03797
17028.200385	0.04003
17028.900385	0.04249
17029.600385	0.04559
17030.200385	0.04910
17030.900385	0.05362
17031.600385	0.05895
17032.300385	0.06542
17033.100385	0.07264
17033.800385	0.08245
17034.400385	0.09043
17035.200385	0.10394
17035.800385	0.11563
17036.500385	0.13252
17037.200385	0.15278
17037.900385	0.17684
17038.600385	0.20401
17039.300385	0.23557
17040.000385	0.27211
17040.800385	0.31153
17041.400385	0.34750
17042.200386	0.39483
17042.900386	0.43883
17043.500386	0.47917
17044.200386	0.52420
17044.900386	0.56488
17045.600386	0.60150
17046.300386	0.63272
17047.000386	0.65859
17047.700386	0.67709
17048.400386	0.68988
17049.200386	0.69418
17049.800386	0.69138
17050.500386	0.68387
17051.200386	0.67036
17051.900386	0.65407
17052.600386	0.63504
17053.300386	0.61485
17054.000386	0.59755
17054.800386	0.57873
17055.500386	0.56367
17056.200386	0.55263
17056.900386	0.53999
17057.600386	0.52923
17058.300386	0.51883
17059.000386	0.50889
17059.700386	0.50009
17060.400386	0.49234
17061.000386	0.48537
17061.700386	0.47824
17062.400386	0.47217
17063.200386	0.46579
17063.800386	0.45992
17064.500386	0.45513
17065.300386	0.44956
17065.900386	0.44515
17066.600386	0.44128
17067.300386	0.43811
17068.000386	0.43493
17068.700386	0.43170
17069.400386	0.43078
17070.100386	0.42850
17070.800386	0.42673
17071.500386	0.42567
17072.300386	0.42459
17073.000386	0.42333
17073.700386	0.42307
17074.300386	0.42252
17075.000386	0.42279
17075.700386	0.42257
17076.400386	0.42273
17077.100386	0.42364
17077.800386	0.42566
17078.500386	0.42762
17079.200386	0.43095
17079.900386	0.43403
17080.600386	0.43758
17081.300386	0.44185
17082.000386	0.44744
17082.700386	0.45254
17083.400386	0.45744
17084.100386	0.46334
17084.800386	0.46798
17085.500386	0.47305
17086.200387	0.47814
17087.000387	0.48376
17087.700387	0.48768
17088.400387	0.49167
17089.100387	0.49503
17089.800387	0.49840
17090.400387	0.50181
17091.200387	0.50560
17091.800387	0.50827
17092.600387	0.50982
17093.200387	0.51179
17093.900387	0.51241
17094.600387	0.51330
17096.500387	0.51495
17097.700387	0.51442
17100.300387	0.51070
17102.200387	0.50655
17103.900387	0.50224
17105.400387	0.49822
17106.900387	0.49343
17108.500387	0.48810
17110.200387	0.48248
17111.800387	0.47674
17113.500387	0.47060
17115.100387	0.46543
17116.900387	0.45953
17118.700387	0.45552
17120.500387	0.45154
17122.200387	0.44950
17124.000387	0.44791
17125.800387	0.44661
17127.600387	0.44707
17129.400387	0.44772
17131.200388	0.44926
17133.200388	0.45123
17135.200388	0.45390
17137.100388	0.45588
17139.000388	0.45797
17140.900388	0.46059
17142.900388	0.46310
17144.900388	0.46509
17146.900388	0.46737
17149.000388	0.46862
17151.100388	0.46950
17153.200388	0.47059
17155.200388	0.47099
17157.300388	0.47109
17159.400388	0.47130
17161.500388	0.47058
17163.600388	0.46980
17166.000388	0.46897
17168.200388	0.46758
17170.400388	0.46652
17172.600388	0.46443
17174.800389	0.46282
17177.100389	0.46131
17179.400389	0.45937
17181.900389	0.45816
17184.200389	0.45639
17186.500389	0.45452
17188.900389	0.45360
17191.200389	0.45223
17193.600389	0.45131
17196.000389	0.45074
17198.600389	0.45040
17201.000389	0.45037
17203.400389	0.44948
17205.900389	0.44976
17208.500389	0.44978
17211.000389	0.45024
17213.800389	0.45059
17216.300389	0.45099
17218.800390	0.45091
17221.400390	0.45227
17224.000390	0.45277
17226.600390	0.45375
17229.500390	0.45530
17232.100390	0.45624
17234.800390	0.45705
17237.500390	0.45752
17240.200390	0.45730
17243.100390	0.45655
17246.000390	0.45609
17248.700390	0.45558
17251.500390	0.45534
17254.300390	0.45476
17257.100390	0.45398
17260.100390	0.45358
17263.100391	0.45296
17265.900391	0.45286
17268.900391	0.45183
17271.700391	0.45163
17274.800391	0.45111
17278.000391	0.45004
17280.900391	0.44984
17283.900391	0.44947
17286.800391	0.44894
17289.800391	0.44857
17293.200391	0.44803
17296.200391	0.44807
17299.300391	0.44734
17302.400391	0.44713
17305.600391	0.44726
17309.000392	0.44698
17312.100392	0.44747
17315.300392	0.44738
17318.400392	0.44722
17321.600392	0.44745
17325.100392	0.44726
17328.300392	0.44710
17331.700392	0.44687
17334.900392	0.44706
17338.300392	0.44662
17341.900392	0.44704
17345.200392	0.44667
17348.500392	0.44646
17351.800393	0.44600
17355.400393	0.44587
17359.000393	0.44566
17362.400393	0.44513
17365.800393	0.44452
17369.300393	0.44419
17373.100393	0.44366
17376.600393	0.44338
17380.100393	0.44325
17383.600393	0.44289
17387.200393	0.44261
17391.100393	0.44260
17394.600393	0.44188
17398.200394	0.44225
17401.900394	0.44184
17405.900394	0.44164
17409.500394	0.44137
17413.200394	0.44125
17416.800394	0.44053
17420.800394	0.44092
17424.600394	0.44035
17428.400394	0.44027
17432.100394	0.44023
17436.200394	0.44027
17440.100395	0.44022
17443.900395	0.44015
17447.700395	0.43978
17451.700395	0.43930
17455.800395	0.43911
17459.700395	0.43877
17463.600395	0.43914
17467.700395	0.43881
17471.900395	0.43860
17475.900395	0.43842
17479.800395	0.43794
17483.900396	0.43775
17488.200396	0.43731
17492.300396	0.43688
17496.300396	0.43642
17500.600396	0.43635
17504.800396	0.43622
17509.000396	0.43581
17513.000396	0.43537
17517.400396	0.43534
17521.700396	0.43519
17526.000396	0.43444
17530.200397	0.43460
17534.700397	0.43429
17539.000397	0.43402
17543.300397	0.43372
17547.500397	0.43336
17552.100397	0.43326
17556.400397	0.43294
17560.800397	0.43304
17565.300397	0.43244
17569.900397	0.43242
17574.400398	0.43206
17578.600398	0.43166
17583.300398	0.43141
17587.900398	0.43155
17592.400398	0.43107
17596.900398	0.43066
17601.800398	0.43034
17606.300398	0.43060
17610.800398	0.42997
17615.500398	0.43009
17620.200399	0.42973
17624.900399	0.42971
17629.500399	0.42894
17634.500399	0.42884
17639.100399	0.42847
17643.800399	0.42797
17648.600399	0.42756
17653.500399	0.42758
17658.300399	0.42736
17663.000400	0.42725
17668.200400	0.42653
17673.000400	0.42658
17677.700400	0.42619
17682.700400	0.42606
17687.700400	0.42560
17692.600400	0.42527
17697.600400	0.42487
17702.700400	0.42440
17707.700401	0.42447
17712.500401	0.42429
17717.800401	0.42412
17722.800401	0.42367
17727.700401	0.42327
17733.100401	0.42315
17738.200401	0.42284
17743.200401	0.42271
17748.300401	0.42228
17753.700402	0.42227
17758.700402	0.42192
17764.000402	0.42161
17769.400402	0.42156
17774.600402	0.42128
17779.600402	0.42076
