# XDI/1.0
# Column.1: energy(ev)
# Column.2: fluorescence_emission(au)
# Element.symbol: Y
# Element.edge: K
# Mono.name: Si 2 2 0
# Mono.d_spacing: 1.92
# Beamline.name: FAME
# Sample.name: Yttrium(III) solution at hydrothermal conditions: Y 0.011m Cl 0.79m HCl 0.75m
# Sample.temperature: 450.0 +/- 5.0 °C
# Sample.pressure: 800.0 bar
# Citation.doi:  https://doi.org/10.26302/SSHADE/EXPERIMENT_DT_20170222_001
# Citation.comments: Louvel, Marion; Testemale, Denis; Etschmann, Barbara; Brugger, Joel (2017): Y K edge XAS fluorescence of yttrium(III) solution at hydrothermal conditions: 800 bar 30 to 450°C. SSHADE/FAME (OSUG Data Center). Dataset/Spectral Data. https://doi.org/10.26302/SSHADE/EXPERIMENT_DT_20170222_001Schmitt, Bernard; Bollard, Philippe; Albert, Damien; Garenne, Alexandre; Bonal, Lydie; and the SSHADE partner's consortium (2018). SSHADE: 'Solid Spectroscopy Hosting Architecture of Databases and Expertise'. OSUG Data Center. Service/Database infrastructure. https://doi.org/10.26302/SSHADE
# ////
#---------
# energy(ev)	fluorescence_emission(au)
16850.200381	0.01168
16858.500381	0.01153
16864.300381	0.01156
16869.400382	0.01148
16874.600382	0.01142
16879.600382	0.01131
16884.400382	0.01133
16889.500382	0.01134
16892.900382	0.01129
16895.100382	0.01125
16896.900382	0.01123
16907.800382	0.01133
16914.600383	0.01128
16919.800383	0.01128
16924.700383	0.01123
16929.600383	0.01135
16934.700383	0.01147
16939.700383	0.01144
16944.700383	0.01148
16949.700383	0.01157
16954.800384	0.01182
16959.700384	0.01185
16964.700384	0.01211
16969.800384	0.01236
16974.800384	0.01251
16979.700384	0.01277
16984.800384	0.01322
16989.700384	0.01390
16994.700384	0.01454
16999.900385	0.01550
17001.100385	0.01563
17001.600385	0.01581
17002.300385	0.01581
17003.000385	0.01612
17003.600385	0.01636
17004.300385	0.01653
17005.000385	0.01668
17005.700385	0.01676
17006.400385	0.01696
17007.100385	0.01732
17007.800385	0.01747
17008.500385	0.01774
17009.200385	0.01791
17009.900385	0.01835
17010.600385	0.01857
17011.300385	0.01897
17012.000385	0.01921
17012.700385	0.01960
17013.400385	0.01985
17014.100385	0.02026
17014.800385	0.02072
17015.500385	0.02114
17016.200385	0.02159
17016.900385	0.02202
17017.600385	0.02265
17018.300385	0.02308
17019.000385	0.02387
17019.700385	0.02451
17020.400385	0.02508
17021.100385	0.02604
17021.800385	0.02689
17022.500385	0.02785
17023.200385	0.02877
17023.900385	0.03013
17024.600385	0.03124
17025.400385	0.03292
17026.000385	0.03445
17026.800385	0.03636
17027.500385	0.03846
17028.100385	0.04075
17028.800385	0.04395
17029.600385	0.04870
17030.200385	0.05330
17030.900385	0.05949
17031.600385	0.06682
17032.300385	0.07370
17033.000385	0.08274
17033.700385	0.09433
17034.400385	0.10830
17035.100385	0.12422
17035.800385	0.14272
17036.500385	0.16602
17037.200385	0.19283
17037.900385	0.22483
17038.600385	0.26066
17039.300385	0.29995
17040.000385	0.34162
17040.700385	0.38271
17041.400385	0.42263
17042.100386	0.46122
17042.900386	0.50232
17043.500386	0.53443
17044.200386	0.56193
17044.900386	0.58475
17045.600386	0.60073
17046.300386	0.61402
17047.000386	0.62137
17047.700386	0.62400
17048.400386	0.62315
17049.100386	0.61883
17049.800386	0.61185
17050.500386	0.60363
17051.200386	0.59392
17051.900386	0.58382
17052.600386	0.57355
17053.300386	0.56320
17054.000386	0.55392
17054.700386	0.54585
17055.400386	0.53815
17056.200386	0.53015
17056.900386	0.52420
17057.600386	0.51763
17058.300386	0.51119
17058.900386	0.50674
17059.600386	0.50118
17060.400386	0.49418
17061.000386	0.49006
17061.700386	0.48506
17062.400386	0.48110
17063.100386	0.47750
17063.800386	0.47344
17064.500386	0.47034
17065.200386	0.46674
17065.900386	0.46460
17066.600386	0.46229
17067.300386	0.45911
17068.000386	0.45673
17068.700386	0.45431
17069.400386	0.45162
17070.100386	0.44926
17070.800386	0.44838
17071.600386	0.44636
17072.300386	0.44496
17073.000386	0.44328
17073.600386	0.44123
17074.400386	0.43978
17075.000386	0.43819
17075.700386	0.43755
17076.400386	0.43673
17077.100386	0.43696
17077.800386	0.43730
17078.500386	0.43789
17079.200386	0.43891
17079.900386	0.44155
17080.600386	0.44336
17081.300386	0.44565
17082.000386	0.44864
17082.700386	0.45218
17083.400386	0.45534
17084.100386	0.45945
17084.800386	0.46316
17085.500386	0.46618
17086.200387	0.46973
17086.900387	0.47261
17087.700387	0.47683
17088.400387	0.48028
17089.000387	0.48303
17089.700387	0.48564
17090.400387	0.48794
17091.100387	0.49113
17091.800387	0.49348
17092.500387	0.49605
17093.200387	0.49823
17093.900387	0.49918
17094.600387	0.50019
17096.500387	0.50326
17097.600387	0.50326
17100.300387	0.50272
17102.200387	0.49996
17103.800387	0.49724
17105.400387	0.49369
17106.900387	0.49019
17108.500387	0.48547
17110.200387	0.48065
17111.800387	0.47587
17113.500387	0.47085
17115.100387	0.46644
17116.900387	0.46298
17118.700387	0.45854
17120.500387	0.45612
17122.200387	0.45355
17124.000387	0.45208
17125.800387	0.45025
17127.600387	0.45053
17129.400387	0.45001
17131.200388	0.45085
17133.200388	0.45260
17135.200388	0.45425
17137.100388	0.45545
17138.900388	0.45818
17140.900388	0.46005
17142.900388	0.46154
17144.900388	0.46431
17146.800388	0.46608
17149.000388	0.46761
17151.100388	0.46874
17153.100388	0.46977
17155.200388	0.46944
17157.300388	0.47021
17159.400388	0.46973
17161.500388	0.46932
17163.600388	0.46829
17166.000388	0.46681
17168.200388	0.46625
17170.300388	0.46460
17172.600388	0.46258
17174.800389	0.46019
17177.100389	0.45901
17179.400389	0.45719
17181.900389	0.45615
17184.200389	0.45430
17186.500389	0.45330
17188.800389	0.45228
17191.200389	0.45099
17193.500389	0.45096
17196.000389	0.45073
17198.600389	0.45046
17201.000389	0.45066
17203.400389	0.45065
17206.000389	0.45072
17208.500389	0.45109
17211.000389	0.45131
17213.700389	0.45206
17216.200389	0.45227
17218.900390	0.45303
17221.400390	0.45344
17224.000390	0.45444
17226.600390	0.45538
17229.500390	0.45599
17232.100390	0.45742
17234.800390	0.45749
17237.500390	0.45714
17240.300390	0.45674
17243.100390	0.45617
17246.000390	0.45544
17248.700390	0.45539
17251.500390	0.45433
17254.300390	0.45378
17257.100390	0.45297
17260.100390	0.45218
17263.100391	0.45176
17265.900391	0.45187
17268.900391	0.45154
17271.800391	0.45094
17274.800391	0.45017
17278.000391	0.45002
17280.900391	0.44983
17283.900391	0.44957
17286.800391	0.44959
17289.900391	0.44962
17293.200391	0.44924
17296.200391	0.44891
17299.300391	0.44905
17302.400391	0.44911
17305.600391	0.44888
17309.000392	0.44860
17312.100392	0.44862
17315.300392	0.44866
17318.400392	0.44844
17321.700392	0.44851
17325.200392	0.44774
17328.300392	0.44806
17331.700392	0.44784
17334.900392	0.44748
17338.400392	0.44744
17341.900392	0.44728
17345.200392	0.44711
17348.500392	0.44678
17351.800393	0.44631
17355.500393	0.44568
17358.900393	0.44564
17362.400393	0.44549
17365.900393	0.44525
17369.300393	0.44516
17373.100393	0.44454
17376.600393	0.44411
17380.200393	0.44389
17383.600393	0.44421
17387.300393	0.44320
17391.100393	0.44392
17394.600393	0.44376
17398.300394	0.44332
17402.000394	0.44366
17405.900394	0.44328
17409.500394	0.44305
17413.200394	0.44311
17416.800394	0.44276
17420.800394	0.44252
17424.600394	0.44252
17428.400394	0.44225
17432.200394	0.44227
17436.200394	0.44185
17440.100395	0.44146
17444.000395	0.44152
17447.700395	0.44132
17451.700395	0.44101
17455.800395	0.44039
17459.700395	0.44030
17463.600395	0.44061
17467.700395	0.44002
17471.900395	0.43966
17475.900395	0.43992
17479.800395	0.43912
17483.900396	0.43938
17488.200396	0.43909
17492.300396	0.43905
17496.300396	0.43871
17500.500396	0.43839
17504.900396	0.43819
17509.000396	0.43805
17513.000396	0.43776
17517.400396	0.43799
17521.700396	0.43738
17526.000396	0.43745
17530.100397	0.43696
17534.700397	0.43680
17539.000397	0.43663
17543.300397	0.43592
17547.500397	0.43593
17552.100397	0.43592
17556.500397	0.43562
17560.800397	0.43530
17565.300397	0.43537
17569.900397	0.43526
17574.300398	0.43443
17578.600398	0.43428
17583.300398	0.43421
17587.900398	0.43382
17592.400398	0.43334
17596.900398	0.43358
17601.700398	0.43312
17606.300398	0.43290
17610.800398	0.43280
17615.500398	0.43271
17620.200399	0.43239
17624.900399	0.43210
17629.500399	0.43183
17634.500399	0.43163
17639.200399	0.43165
17643.800399	0.43113
17648.600399	0.43083
17653.500399	0.43102
17658.300399	0.43000
17663.000400	0.42999
17668.200400	0.43006
17673.000400	0.42968
17677.700400	0.42927
17682.700400	0.42940
17687.600400	0.42932
17692.600400	0.42883
17697.600400	0.42855
17702.700400	0.42830
17707.600401	0.42797
17712.500401	0.42789
17717.700401	0.42762
17722.800401	0.42745
17727.700401	0.42690
17733.100401	0.42670
17738.200401	0.42663
17743.200401	0.42614
17748.300401	0.42634
17753.600402	0.42550
17758.800402	0.42536
17764.000402	0.42571
17769.400402	0.42539
17774.600402	0.42485
17779.600402	0.42480
