# XDI/1.0
# Column.1: energy(ev)
# Column.2: fluorescence_emission(au)
# Element.symbol: Y
# Element.edge: K
# Mono.name: Si 2 2 0
# Mono.d_spacing: 1.92
# Beamline.name: FAME
# Sample.name: Yttrium(III) solution at hydrothermal conditions: Y 0.01m Cl 0.03m HCl 0.002m
# Sample.temperature: 350.0 +/- 5.0 °C
# Sample.pressure: 800.0 bar
# Citation.doi:  https://doi.org/10.26302/SSHADE/EXPERIMENT_DT_20170222_001
# Citation.comments: Louvel, Marion; Testemale, Denis; Etschmann, Barbara; Brugger, Joel (2017): Y K edge XAS fluorescence of yttrium(III) solution at hydrothermal conditions: 800 bar 30 to 450°C. SSHADE/FAME (OSUG Data Center). Dataset/Spectral Data. https://doi.org/10.26302/SSHADE/EXPERIMENT_DT_20170222_001Schmitt, Bernard; Bollard, Philippe; Albert, Damien; Garenne, Alexandre; Bonal, Lydie; and the SSHADE partner's consortium (2018). SSHADE: 'Solid Spectroscopy Hosting Architecture of Databases and Expertise'. OSUG Data Center. Service/Database infrastructure. https://doi.org/10.26302/SSHADE
# ////
#---------
# energy(ev)	fluorescence_emission(au)
16847.700381	0.01288
16853.900381	0.01248
16859.200381	0.01259
16864.400381	0.01244
16869.300382	0.01241
16874.400382	0.01238
16876.700382	0.01235
16878.100382	0.01233
16883.900382	0.01221
16893.700382	0.01200
16899.600382	0.01195
16904.700382	0.01191
16909.700383	0.01179
16914.700383	0.01180
16919.800383	0.01181
16924.700383	0.01169
16929.600383	0.01169
16934.700383	0.01165
16939.800383	0.01170
16944.800383	0.01165
16949.700383	0.01164
16954.800384	0.01171
16959.700384	0.01166
16964.700384	0.01184
16969.900384	0.01187
16974.800384	0.01199
16979.700384	0.01216
16984.900384	0.01236
16989.800384	0.01264
16994.800384	0.01287
17000.000385	0.01334
17001.200385	0.01360
17001.700385	0.01361
17002.300385	0.01367
17003.000385	0.01381
17003.600385	0.01378
17004.300385	0.01396
17005.000385	0.01398
17005.700385	0.01408
17006.400385	0.01430
17007.100385	0.01441
17007.800385	0.01445
17008.500385	0.01458
17009.200385	0.01474
17009.900385	0.01485
17010.600385	0.01503
17011.300385	0.01524
17012.000385	0.01531
17012.800385	0.01557
17013.400385	0.01572
17014.100385	0.01587
17014.800385	0.01605
17015.500385	0.01631
17016.200385	0.01656
17016.900385	0.01691
17017.600385	0.01709
17018.300385	0.01740
17019.000385	0.01770
17019.700385	0.01813
17020.400385	0.01848
17021.100385	0.01874
17021.800385	0.01936
17022.500385	0.01978
17023.200385	0.02030
17023.900385	0.02089
17024.600385	0.02151
17025.400385	0.02230
17026.000385	0.02314
17026.800385	0.02424
17027.500385	0.02528
17028.200385	0.02654
17028.900385	0.02838
17029.600385	0.03006
17030.200385	0.03256
17030.900385	0.03522
17031.600385	0.03874
17032.300385	0.04275
17033.100385	0.04839
17033.800385	0.05388
17034.400385	0.05939
17035.200385	0.06827
17035.800385	0.07600
17036.500385	0.08688
17037.200385	0.09977
17037.900385	0.11578
17038.600385	0.13422
17039.300385	0.15481
17040.000385	0.17739
17040.800385	0.20313
17041.400385	0.22420
17042.200386	0.25233
17042.900386	0.27636
17043.500386	0.29872
17044.200386	0.32224
17044.900386	0.34215
17045.600386	0.35871
17046.300386	0.37142
17047.000386	0.38122
17047.700386	0.38781
17048.400386	0.39024
17049.200386	0.38890
17049.800386	0.38576
17050.500386	0.38007
17051.200386	0.37248
17051.900386	0.36374
17052.600386	0.35556
17053.300386	0.34693
17054.000386	0.33888
17054.800386	0.33021
17055.500386	0.32345
17056.200386	0.31855
17056.900386	0.31243
17057.600386	0.30721
17058.300386	0.30234
17059.000386	0.29806
17059.700386	0.29347
17060.400386	0.28924
17061.000386	0.28564
17061.700386	0.28196
17062.400386	0.27922
17063.200386	0.27527
17063.800386	0.27291
17064.500386	0.27013
17065.300386	0.26763
17065.900386	0.26652
17066.600386	0.26389
17067.300386	0.26202
17068.000386	0.26112
17068.700386	0.25956
17069.400386	0.25839
17070.100386	0.25695
17070.800386	0.25583
17071.500386	0.25505
17072.300386	0.25421
17073.000386	0.25372
17073.700386	0.25282
17074.300386	0.25196
17075.000386	0.25114
17075.700386	0.25075
17076.400386	0.25046
17077.100386	0.25058
17077.800386	0.25142
17078.500386	0.25203
17079.200386	0.25313
17079.900386	0.25481
17080.600386	0.25648
17081.300386	0.25854
17082.000386	0.26056
17082.700386	0.26319
17083.400386	0.26529
17084.100386	0.26745
17084.800386	0.26983
17085.500386	0.27249
17086.200387	0.27479
17087.000387	0.27722
17087.700387	0.27957
17088.400387	0.28183
17089.100387	0.28336
17089.800387	0.28526
17090.400387	0.28687
17091.200387	0.28854
17091.800387	0.28938
17092.600387	0.29147
17093.200387	0.29184
17093.900387	0.29224
17094.600387	0.29309
17096.500387	0.29421
17097.700387	0.29444
17100.300387	0.29226
17102.200387	0.29010
17103.900387	0.28802
17105.400387	0.28543
17106.900387	0.28286
17108.500387	0.27998
17110.200387	0.27690
17111.800387	0.27365
17113.500387	0.27098
17115.100387	0.26793
17116.900387	0.26510
17118.700387	0.26260
17120.500387	0.26073
17122.200387	0.25921
17124.000387	0.25847
17125.800387	0.25774
17127.600387	0.25725
17129.400387	0.25783
17131.200388	0.25815
17133.200388	0.25875
17135.200388	0.25983
17137.100388	0.26085
17139.000388	0.26171
17140.900388	0.26275
17142.900388	0.26411
17144.900388	0.26483
17146.900388	0.26579
17149.000388	0.26640
17151.100388	0.26661
17153.200388	0.26711
17155.200388	0.26728
17157.300388	0.26712
17159.400388	0.26654
17161.500388	0.26595
17163.600388	0.26547
17166.000388	0.26449
17168.200388	0.26375
17170.400388	0.26281
17172.600388	0.26183
17174.800389	0.26073
17177.100389	0.25966
17179.400389	0.25865
17181.900389	0.25756
17184.200389	0.25649
17186.500389	0.25579
17188.900389	0.25511
17191.200389	0.25446
17193.600389	0.25393
17196.000389	0.25357
17198.600389	0.25312
17201.000389	0.25318
17203.400389	0.25297
17205.900389	0.25274
17208.500389	0.25274
17211.000389	0.25266
17213.800389	0.25272
17216.300389	0.25266
17218.800390	0.25319
17221.400390	0.25318
17224.000390	0.25338
17226.600390	0.25364
17229.500390	0.25409
17232.100390	0.25442
17234.800390	0.25466
17237.500390	0.25454
17240.200390	0.25419
17243.100390	0.25356
17246.000390	0.25330
17248.700390	0.25282
17251.500390	0.25230
17254.300390	0.25185
17257.100390	0.25116
17260.100390	0.25064
17263.100391	0.25056
17265.900391	0.25023
17268.900391	0.24985
17271.700391	0.24938
17274.800391	0.24893
17278.000391	0.24861
17280.900391	0.24831
17283.900391	0.24807
17286.800391	0.24770
17289.800391	0.24765
17293.200391	0.24737
17296.200391	0.24689
17299.300391	0.24652
17302.400391	0.24640
17305.600391	0.24598
17309.000392	0.24586
17312.100392	0.24583
17315.300392	0.24572
17318.400392	0.24551
17321.600392	0.24505
17325.100392	0.24509
17328.300392	0.24481
17331.700392	0.24455
17334.900392	0.24433
17338.300392	0.24414
17341.900392	0.24376
17345.200392	0.24367
17348.500392	0.24324
17351.800393	0.24282
17355.400393	0.24265
17359.000393	0.24224
17362.400393	0.24195
17365.800393	0.24163
17369.300393	0.24124
17373.100393	0.24088
17376.600393	0.24061
17380.100393	0.24059
17383.600393	0.24037
17387.200393	0.24004
17391.100393	0.23948
17394.600393	0.23940
17398.200394	0.23922
17401.900394	0.23899
17405.900394	0.23889
17409.500394	0.23849
17413.200394	0.23868
17416.800394	0.23842
17420.800394	0.23807
17424.600394	0.23782
17428.400394	0.23771
17432.100394	0.23711
17436.200394	0.23704
17440.100395	0.23715
17443.900395	0.23655
17447.700395	0.23658
17451.700395	0.23630
17455.800395	0.23577
17459.700395	0.23592
17463.600395	0.23534
17467.700395	0.23525
17471.900395	0.23494
17475.900395	0.23480
17479.800395	0.23445
17483.900396	0.23425
17488.200396	0.23402
17492.300396	0.23364
17496.300396	0.23371
17500.600396	0.23348
17504.800396	0.23299
17509.000396	0.23276
17513.000396	0.23256
17517.400396	0.23225
17521.700396	0.23207
17526.000396	0.23174
17530.200397	0.23168
17534.700397	0.23133
17539.000397	0.23095
17543.300397	0.23101
17547.500397	0.23051
17552.100397	0.23045
17556.400397	0.23009
17560.800397	0.22993
17565.300397	0.22960
17569.900397	0.22930
17574.400398	0.22906
17578.600398	0.22878
17583.300398	0.22859
17587.900398	0.22832
17592.400398	0.22817
17596.900398	0.22789
17601.800398	0.22766
17606.300398	0.22744
17610.800398	0.22692
17615.500398	0.22677
17620.200399	0.22673
17624.900399	0.22664
17629.500399	0.22615
17634.500399	0.22584
17639.100399	0.22543
17643.800399	0.22502
17648.600399	0.22493
17653.500399	0.22494
17658.300399	0.22454
17663.000400	0.22433
17668.200400	0.22386
17673.000400	0.22362
17677.700400	0.22355
17682.700400	0.22335
17687.700400	0.22296
17692.600400	0.22265
17697.600400	0.22256
17702.700400	0.22237
17707.700401	0.22195
17712.500401	0.22165
17717.800401	0.22160
17722.800401	0.22095
17727.700401	0.22121
17733.100401	0.22072
17738.200401	0.22053
17743.200401	0.22027
17748.300401	0.22009
17753.700402	0.21981
17758.700402	0.21961
17764.000402	0.21937
17769.400402	0.21915
17774.600402	0.21888
17779.600402	0.21856
