# XDI/1.0
# Column.1: energy(ev)
# Column.2: fluorescence_emission(au)
# Element.symbol: Zr
# Element.edge: K
# Mono.name: Si 2 2 0
# Mono.d_spacing: 1.92
# Beamline.name: FAME
# Sample.name: Na2Si2O5 Zr glass
# Sample.temperature: 293.0 +/- 2.0 K
# Sample.pressure: None
# Citation.doi:  https://doi.org/10.26302/SSHADE/EXPERIMENT_ML_20171221_002
# Citation.comments: Louvel, Marion; Sanchez-Valle, Carmen (2009): Zr K edge XAS fluorescence of Na2Si2O5 Zr glass at ambient conditions. SSHADE/FAME (OSUG Data Center). Dataset/Spectral Data. https://doi.org/10.26302/SSHADE/EXPERIMENT_ML_20171221_002Schmitt, Bernard; Bollard, Philippe; Albert, Damien; Garenne, Alexandre; Bonal, Lydie; and the SSHADE partner's consortium (2018). SSHADE: 'Solid Spectroscopy Hosting Architecture of Databases and Expertise'. OSUG Data Center. Service/Database infrastructure. https://doi.org/10.26302/SSHADE
# ////
#---------
# energy(ev)	fluorescence_emission(au)
17786.400402	0.00468
17791.900402	0.00444
17796.800403	0.00401
17801.600403	0.00412
17806.800403	0.00393
17811.900403	0.00322
17816.900403	0.00311
17821.800403	0.00262
17826.900403	0.00192
17831.800403	0.00237
17836.800403	0.00175
17842.000404	0.00144
17846.900404	0.00160
17851.900404	0.00119
17856.800404	0.00095
17862.000404	0.00052
17867.000404	0.00062
17871.900404	0.00065
17877.100404	-0.00009
17882.100405	0.00002
17886.900405	-0.00022
17892.000405	0.00017
17897.100405	-0.00033
17902.100405	-0.00063
17907.000405	-0.00066
17912.200405	-0.00025
17917.000405	0.00009
17922.000405	0.00011
17927.100406	0.00039
17932.100406	0.00061
17932.800406	0.00102
17933.500406	0.00139
17934.200406	0.00150
17935.000406	0.00145
17935.700406	0.00150
17936.500406	0.00134
17937.300406	0.00140
17938.000406	0.00181
17938.800406	0.00210
17939.500406	0.00243
17940.200406	0.00249
17941.000406	0.00258
17941.800406	0.00230
17942.500406	0.00296
17943.300406	0.00317
17944.000406	0.00321
17944.800406	0.00350
17945.500406	0.00415
17946.300406	0.00378
17947.000406	0.00389
17947.800406	0.00421
17948.500406	0.00434
17949.300406	0.00435
17950.000406	0.00465
17950.700406	0.00499
17951.500406	0.00488
17952.200406	0.00504
17952.900406	0.00574
17953.700406	0.00539
17954.500406	0.00606
17955.200406	0.00656
17956.000406	0.00704
17956.800406	0.00694
17957.500406	0.00713
17958.200406	0.00736
17959.000406	0.00780
17959.800406	0.00901
17960.500406	0.00868
17961.300406	0.00980
17962.000406	0.00970
17962.800406	0.01013
17963.500406	0.01131
17964.300406	0.01135
17965.000406	0.01150
17965.800406	0.01269
17966.600406	0.01296
17967.300406	0.01363
17968.000406	0.01477
17968.800406	0.01552
17969.500406	0.01674
17970.200407	0.01691
17971.000407	0.01852
17971.800407	0.02046
17972.500407	0.02083
17973.300407	0.02245
17974.100407	0.02456
17974.800407	0.02556
17975.500407	0.02624
17976.200407	0.02837
17977.000407	0.03001
17977.800407	0.03207
17978.500407	0.03438
17979.200407	0.03597
17980.000407	0.03983
17980.700407	0.04327
17981.500407	0.04752
17982.300407	0.05245
17983.000407	0.05761
17983.800407	0.06558
17984.500407	0.07548
17985.300407	0.08789
17986.000407	0.10320
17986.700407	0.11968
17987.500407	0.13274
17988.200407	0.14606
17989.000407	0.16259
17989.700407	0.18603
17990.500407	0.21218
17991.300407	0.24508
17992.000407	0.28114
17992.800407	0.33094
17993.500407	0.38974
17994.300407	0.45364
17995.000407	0.51806
17995.800407	0.58653
17996.600407	0.65734
17997.300407	0.72843
17998.000407	0.81111
17998.700407	0.89444
17999.500407	0.96747
18000.300407	1.03530
18001.100407	1.08443
18001.800407	1.11493
18002.500407	1.13541
18003.300407	1.14689
18004.000407	1.15349
18004.800407	1.15657
18005.500407	1.15488
18006.200407	1.15260
18007.000407	1.15812
18007.800407	1.16428
18008.500407	1.17296
18009.300407	1.18044
18010.100407	1.19551
18010.800407	1.20902
18011.600407	1.22836
18012.300407	1.24794
18013.000407	1.27418
18013.700407	1.29770
18014.500408	1.31862
18015.200408	1.33947
18016.000408	1.34826
18016.800408	1.34526
18017.500408	1.33078
18018.200408	1.30069
18019.000408	1.25649
18019.800408	1.21712
18020.500408	1.17834
18021.300408	1.13861
18022.000408	1.10335
18022.800408	1.07303
18023.500408	1.04571
18024.200408	1.02728
18025.000408	1.00387
18025.800408	0.98681
18026.500408	0.97407
18027.300408	0.96896
18028.000408	0.96160
18028.800408	0.95423
18029.500408	0.95052
18030.300408	0.94108
18031.000408	0.93673
18031.700408	0.93303
18033.600408	0.91792
18034.600408	0.91619
18037.400408	0.89955
18038.900408	0.89668
18040.300408	0.89186
18041.900408	0.88733
18043.400408	0.89459
18045.000408	0.89651
18046.600408	0.90183
18048.200408	0.90541
18049.700408	0.91133
18051.300408	0.91893
18053.100408	0.92964
18054.700408	0.94684
18056.400408	0.95952
18058.100408	0.97977
18059.700409	1.00213
18061.500409	1.02312
18063.300409	1.03787
18065.200409	1.05768
18066.900409	1.07908
18068.800409	1.08181
18070.600409	1.08242
18072.400409	1.07773
18074.300409	1.07068
18076.200409	1.06851
18078.100409	1.05730
18080.100409	1.05277
18082.100409	1.04769
18084.100409	1.03941
18086.000409	1.03570
18088.000409	1.03123
18090.000409	1.02363
18092.000409	1.02081
18094.100409	1.01508
18096.200409	1.00830
18098.400409	1.00114
18100.500409	0.99474
18102.600410	0.99127
18104.700410	0.98702
18106.900410	0.98026
18109.000410	0.97635
18111.200410	0.97728
18113.400410	0.97436
18115.800410	0.97130
18118.000410	0.96959
18120.400410	0.97542
18122.600410	0.97807
18124.900410	0.97905
18127.200410	0.98485
18129.700410	0.98920
18132.100410	0.99762
18134.600410	1.00148
18136.900410	1.00602
18139.400410	1.01015
18141.800410	1.01419
18144.200410	1.01826
18146.700411	1.02016
18149.200411	1.02122
18151.900411	1.02489
18154.400411	1.02151
18157.000411	1.01379
18159.600411	1.01572
18162.100411	1.01196
18164.800411	1.01059
18167.500411	1.00862
18170.300411	1.00341
18172.900411	1.00134
18175.600411	1.00031
18178.300411	0.99564
18181.000411	0.99217
18183.800411	0.99081
18186.700411	0.98711
18189.500411	0.98135
18192.300412	0.97959
18195.100412	0.97860
18197.900412	0.97751
18200.700412	0.97696
18203.800412	0.97785
18206.700412	0.97942
18209.600412	0.97390
18212.600412	0.98266
18215.500412	0.98456
18218.500412	0.98822
18221.600412	0.99018
18224.600412	0.99076
18227.600412	0.99226
18230.700412	0.99360
18233.700412	0.99499
18236.700413	0.99759
18239.900413	0.99768
18243.100413	1.00159
18246.200413	1.00318
18249.400413	1.00566
18252.600413	1.00896
18255.800413	1.01292
18259.200413	1.01368
18262.400413	1.01068
18265.600413	1.01143
18269.000413	1.01161
18272.200413	1.01415
18275.500413	1.01345
18278.900413	1.01530
18282.200414	1.01345
18285.600414	1.01183
18289.000414	1.01223
18292.500414	1.01209
18296.000414	1.00723
18299.200414	1.00481
18302.800414	1.00298
18306.400414	1.00315
18309.900414	1.00062
18313.600414	1.00156
18317.000414	0.99972
18320.600414	1.00077
18324.200415	1.00215
18327.800415	1.00000
18331.500415	0.99888
18335.200415	0.99749
18338.700415	0.99755
18342.300415	0.99746
18346.100415	0.99823
18349.800415	0.99412
18353.500415	0.99300
18357.300415	0.99070
18361.100415	0.99141
18365.000415	0.99129
18368.700416	0.99126
18372.600416	0.99140
18376.400416	0.99358
18380.200416	0.99692
18384.400416	1.00246
18388.200416	1.00575
18392.100416	1.00839
18396.000416	1.00994
18400.000416	1.01151
18404.000416	1.01185
18408.000416	1.01193
18412.000417	1.01330
18416.100417	1.01265
18420.200417	1.01034
18424.200417	1.00919
18428.300417	1.00940
18432.300417	1.00602
18436.500417	1.00450
18440.800417	1.00407
18444.900417	1.00191
18449.100417	1.00181
18453.300417	0.99911
18457.600418	1.00202
18461.800418	0.99907
18466.000418	0.99983
18470.400418	0.99659
18474.800418	1.00222
18479.100418	1.00199
18483.200418	1.00085
18487.800418	0.99908
18492.100418	0.99746
18496.500418	0.99922
18500.900419	0.99432
18505.300419	0.98899
18509.900419	0.98470
18514.200419	0.98520
18518.800419	0.98476
